# Macroscopic dielectric function obtained with the BS equation.
#  RPA L0 with KS energies and KS wavefunctions     LOCAL FIELD EFFECTS INCLUDED
# RESONANT-ONLY calculation
# Coulomb term constructed with full W(G1,G2)
# Scissor operator energy =  0.8000 [eV]
# Tolerance =  0.0500 0.0000
# npweps  = 59
# npwwfn  = 283
# nbands  = 6
# loband  = 2
# nkibz   = 64
# nkbz    = 64
# Lorentzian broadening =  0.1000 [eV]
# List of q-points for the optical limit:
# q =  0.938821, 0.000000, 0.000000, [Reduced coords] 
# q =  0.000000, 0.938821, 0.000000, [Reduced coords] 
# q =  0.000000, 0.000000, 0.938821, [Reduced coords] 
# q =  0.000000, 0.813043, 0.813043, [Reduced coords] 
# q =  0.813043, 0.000000, 0.813043, [Reduced coords] 
# q =  0.813043, 0.813043, 0.000000, [Reduced coords] 
# omega [eV]    RE(eps(q=1)) IM(eps(q=1) RE(eps(q=2) ) ... 
  0.000   15.8463    0.0000   15.6164    0.0000   12.7767    0.0000   12.1627    0.0000   15.0077    0.0000   15.3467    0.0000
  0.020   15.8467    0.0041   15.6168    0.0041   12.7770    0.0030   12.1629    0.0027   15.0081    0.0039   15.3471    0.0040
  0.040   15.8479    0.0083   15.6180    0.0081   12.7779    0.0060   12.1638    0.0054   15.0093    0.0078   15.3483    0.0079
  0.060   15.8500    0.0124   15.6200    0.0122   12.7794    0.0090   12.1651    0.0081   15.0112    0.0116   15.3503    0.0119
  0.080   15.8529    0.0166   15.6229    0.0163   12.7815    0.0120   12.1670    0.0108   15.0139    0.0155   15.3531    0.0159
  0.100   15.8566    0.0207   15.6265    0.0203   12.7842    0.0150   12.1694    0.0136   15.0174    0.0194   15.3566    0.0199
  0.120   15.8611    0.0249   15.6310    0.0244   12.7875    0.0181   12.1724    0.0163   15.0217    0.0233   15.3610    0.0239
  0.140   15.8665    0.0291   15.6362    0.0285   12.7914    0.0211   12.1759    0.0190   15.0267    0.0272   15.3662    0.0279
  0.160   15.8727    0.0333   15.6423    0.0326   12.7959    0.0241   12.1800    0.0217   15.0325    0.0312   15.3721    0.0319
  0.180   15.8798    0.0374   15.6492    0.0367   12.8010    0.0271   12.1846    0.0245   15.0391    0.0351   15.3789    0.0359
  0.200   15.8877    0.0417   15.6570    0.0408   12.8068    0.0302   12.1898    0.0272   15.0465    0.0390   15.3864    0.0399
  0.220   15.8964    0.0459   15.6655    0.0450   12.8131    0.0333   12.1955    0.0300   15.0547    0.0430   15.3948    0.0440
  0.240   15.9060    0.0501   15.6749    0.0491   12.8200    0.0363   12.2017    0.0328   15.0636    0.0470   15.4040    0.0481
  0.260   15.9164    0.0544   15.6851    0.0533   12.8276    0.0394   12.2085    0.0355   15.0734    0.0509   15.4140    0.0521
  0.280   15.9276    0.0587   15.6962    0.0575   12.8358    0.0425   12.2159    0.0383   15.0840    0.0549   15.4248    0.0562
  0.300   15.9398    0.0630   15.7081    0.0617   12.8445    0.0456   12.2238    0.0411   15.0953    0.0590   15.4364    0.0604
  0.320   15.9528    0.0673   15.7208    0.0660   12.8539    0.0487   12.2323    0.0439   15.1075    0.0630   15.4489    0.0645
  0.340   15.9666    0.0716   15.7344    0.0702   12.8640    0.0519   12.2414    0.0468   15.1205    0.0671   15.4621    0.0687
  0.360   15.9813    0.0760   15.7488    0.0745   12.8746    0.0550   12.2510    0.0496   15.1342    0.0712   15.4762    0.0729
  0.380   15.9969    0.0804   15.7641    0.0788   12.8859    0.0582   12.2611    0.0525   15.1488    0.0753   15.4912    0.0771
  0.400   16.0134    0.0848   15.7802    0.0832   12.8979    0.0614   12.2719    0.0553   15.1643    0.0795   15.5070    0.0813
  0.420   16.0307    0.0893   15.7972    0.0875   12.9104    0.0646   12.2832    0.0582   15.1805    0.0836   15.5236    0.0856
  0.440   16.0490    0.0938   15.8151    0.0919   12.9236    0.0679   12.2951    0.0611   15.1976    0.0879   15.5411    0.0899
  0.460   16.0681    0.0983   15.8339    0.0964   12.9375    0.0711   12.3076    0.0641   15.2156    0.0921   15.5595    0.0943
  0.480   16.0882    0.1029   15.8536    0.1009   12.9520    0.0744   12.3207    0.0670   15.2344    0.0964   15.5787    0.0986
  0.500   16.1092    0.1075   15.8741    0.1054   12.9672    0.0778   12.3343    0.0700   15.2540    0.1007   15.5988    0.1031
  0.520   16.1310    0.1121   15.8956    0.1099   12.9830    0.0811   12.3486    0.0730   15.2745    0.1050   15.6198    0.1075
  0.540   16.1539    0.1168   15.9180    0.1145   12.9995    0.0845   12.3635    0.0760   15.2959    0.1094   15.6417    0.1120
  0.560   16.1776    0.1216   15.9413    0.1192   13.0167    0.0879   12.3789    0.0791   15.3181    0.1139   15.6645    0.1165
  0.580   16.2023    0.1263   15.9655    0.1239   13.0346    0.0913   12.3950    0.0822   15.3413    0.1184   15.6882    0.1211
  0.600   16.2280    0.1312   15.9906    0.1286   13.0531    0.0948   12.4117    0.0853   15.3653    0.1229   15.7128    0.1258
  0.620   16.2546    0.1361   16.0167    0.1334   13.0724    0.0983   12.4290    0.0884   15.3903    0.1275   15.7383    0.1304
  0.640   16.2823    0.1410   16.0438    0.1382   13.0923    0.1018   12.4470    0.0916   15.4162    0.1321   15.7648    0.1352
  0.660   16.3109    0.1460   16.0719    0.1431   13.1130    0.1054   12.4655    0.0947   15.4429    0.1368   15.7922    0.1400
  0.680   16.3405    0.1510   16.1009    0.1480   13.1344    0.1090   12.4848    0.0980   15.4707    0.1415   15.8206    0.1448
  0.700   16.3711    0.1561   16.1309    0.1531   13.1565    0.1127   12.5046    0.1012   15.4994    0.1463   15.8499    0.1497
  0.720   16.4027    0.1613   16.1619    0.1581   13.1793    0.1164   12.5251    0.1045   15.5290    0.1511   15.8803    0.1547
  0.740   16.4354    0.1665   16.1939    0.1633   13.2029    0.1201   12.5463    0.1079   15.5596    0.1560   15.9116    0.1597
  0.760   16.4691    0.1718   16.2270    0.1684   13.2272    0.1239   12.5682    0.1112   15.5912    0.1610   15.9439    0.1648
  0.780   16.5039    0.1772   16.2611    0.1737   13.2523    0.1277   12.5907    0.1146   15.6238    0.1660   15.9773    0.1699
  0.800   16.5397    0.1827   16.2962    0.1791   13.2781    0.1316   12.6139    0.1181   15.6574    0.1711   16.0116    0.1751
  0.820   16.5767    0.1882   16.3324    0.1845   13.3048    0.1355   12.6378    0.1216   15.6920    0.1763   16.0471    0.1804
  0.840   16.6148    0.1938   16.3698    0.1900   13.3322    0.1395   12.6624    0.1251   15.7277    0.1816   16.0836    0.1858
  0.860   16.6540    0.1995   16.4082    0.1955   13.3604    0.1436   12.6877    0.1287   15.7644    0.1869   16.1211    0.1913
  0.880   16.6943    0.2053   16.4477    0.2012   13.3894    0.1477   12.7137    0.1324   15.8022    0.1923   16.1598    0.1968
  0.900   16.7358    0.2111   16.4884    0.2069   13.4193    0.1518   12.7405    0.1360   15.8410    0.1978   16.1996    0.2024
  0.920   16.7784    0.2171   16.5302    0.2128   13.4499    0.1561   12.7679    0.1398   15.8810    0.2034   16.2405    0.2081
  0.940   16.8223    0.2231   16.5732    0.2187   13.4815    0.1603   12.7962    0.1436   15.9221    0.2090   16.2825    0.2139
  0.960   16.8673    0.2293   16.6173    0.2247   13.5139    0.1647   12.8252    0.1474   15.9643    0.2148   16.3257    0.2198
  0.980   16.9136    0.2355   16.6627    0.2308   13.5471    0.1691   12.8550    0.1513   16.0077    0.2206   16.3701    0.2258
  1.000   16.9612    0.2419   16.7093    0.2370   13.5813    0.1736   12.8855    0.1553   16.0522    0.2266   16.4157    0.2319
  1.020   17.0100    0.2483   16.7572    0.2434   13.6163    0.1782   12.9169    0.1593   16.0980    0.2327   16.4625    0.2381
  1.040   17.0602    0.2549   16.8063    0.2498   13.6523    0.1828   12.9490    0.1634   16.1449    0.2388   16.5106    0.2444
  1.060   17.1116    0.2616   16.8567    0.2564   13.6892    0.1875   12.9820    0.1675   16.1931    0.2451   16.5599    0.2508
  1.080   17.1644    0.2684   16.9085    0.2631   13.7270    0.1923   13.0158    0.1717   16.2426    0.2515   16.6105    0.2573
  1.100   17.2186    0.2754   16.9615    0.2699   13.7658    0.1972   13.0504    0.1760   16.2934    0.2580   16.6624    0.2640
  1.120   17.2741    0.2825   17.0160    0.2768   13.8056    0.2022   13.0860    0.1804   16.3454    0.2647   16.7157    0.2708
  1.140   17.3311    0.2897   17.0718    0.2839   13.8464    0.2072   13.1223    0.1848   16.3988    0.2714   16.7703    0.2777
  1.160   17.3895    0.2971   17.1291    0.2911   13.8882    0.2124   13.1596    0.1893   16.4535    0.2783   16.8263    0.2848
  1.180   17.4494    0.3046   17.1878    0.2984   13.9310    0.2176   13.1978    0.1939   16.5097    0.2854   16.8838    0.2920
  1.200   17.5109    0.3122   17.2480    0.3060   13.9749    0.2230   13.2369    0.1986   16.5672    0.2926   16.9426    0.2993
  1.220   17.5738    0.3201   17.3097    0.3136   14.0199    0.2285   13.2769    0.2033   16.6262    0.2999   17.0030    0.3068
  1.240   17.6383    0.3280   17.3729    0.3214   14.0660    0.2340   13.3179    0.2082   16.6867    0.3074   17.0649    0.3145
  1.260   17.7045    0.3362   17.4377    0.3294   14.1131    0.2397   13.3599    0.2131   16.7486    0.3150   17.1283    0.3223
  1.280   17.7722    0.3445   17.5041    0.3376   14.1615    0.2455   13.4029    0.2181   16.8121    0.3229   17.1932    0.3303
  1.300   17.8417    0.3531   17.5721    0.3459   14.2109    0.2514   13.4468    0.2233   16.8772    0.3309   17.2598    0.3385
  1.320   17.9128    0.3618   17.6418    0.3545   14.2616    0.2575   13.4918    0.2285   16.9439    0.3390   17.3280    0.3469
  1.340   17.9857    0.3707   17.7133    0.3632   14.3135    0.2637   13.5379    0.2339   17.0122    0.3474   17.3979    0.3554
  1.360   18.0604    0.3798   17.7865    0.3722   14.3666    0.2700   13.5850    0.2393   17.0822    0.3560   17.4695    0.3642
  1.380   18.1370    0.3892   17.8614    0.3813   14.4210    0.2765   13.6333    0.2449   17.1539    0.3647   17.5429    0.3731
  1.400   18.2154    0.3988   17.9383    0.3907   14.4767    0.2831   13.6826    0.2506   17.2274    0.3737   17.6181    0.3823
  1.420   18.2957    0.4086   18.0170    0.4003   14.5338    0.2898   13.7331    0.2564   17.3027    0.3829   17.6951    0.3917
  1.440   18.3780    0.4186   18.0976    0.4101   14.5922    0.2967   13.7847    0.2623   17.3798    0.3923   17.7740    0.4014
  1.460   18.4623    0.4289   18.1802    0.4202   14.6519    0.3038   13.8376    0.2684   17.4589    0.4020   17.8549    0.4112
  1.480   18.5487    0.4395   18.2648    0.4305   14.7131    0.3111   13.8917    0.2746   17.5398    0.4119   17.9377    0.4214
  1.500   18.6372    0.4503   18.3515    0.4411   14.7758    0.3185   13.9470    0.2810   17.6228    0.4221   18.0225    0.4318
  1.520   18.7279    0.4614   18.4403    0.4520   14.8399    0.3261   14.0036    0.2875   17.7078    0.4325   18.1095    0.4425
  1.540   18.8208    0.4728   18.5314    0.4632   14.9056    0.3339   14.0615    0.2941   17.7949    0.4433   18.1986    0.4534
  1.560   18.9160    0.4846   18.6246    0.4747   14.9728    0.3419   14.1207    0.3010   17.8841    0.4543   18.2899    0.4647
  1.580   19.0136    0.4966   18.7202    0.4865   15.0417    0.3502   14.1813    0.3079   17.9756    0.4656   18.3834    0.4763
  1.600   19.1135    0.5090   18.8181    0.4986   15.1122    0.3586   14.2433    0.3151   18.0693    0.4772   18.4793    0.4882
  1.620   19.2160    0.5218   18.9185    0.5111   15.1844    0.3673   14.3067    0.3224   18.1654    0.4892   18.5776    0.5004
  1.640   19.3210    0.5349   19.0214    0.5239   15.2583    0.3762   14.3717    0.3299   18.2639    0.5015   18.6783    0.5130
  1.660   19.4287    0.5484   19.1268    0.5371   15.3340    0.3853   14.4381    0.3377   18.3648    0.5142   18.7816    0.5260
  1.680   19.5391    0.5623   19.2349    0.5507   15.4116    0.3948   14.5061    0.3456   18.4683    0.5273   18.8874    0.5393
  1.700   19.6522    0.5766   19.3458    0.5647   15.4911    0.4044   14.5756    0.3537   18.5744    0.5407   18.9960    0.5531
  1.720   19.7683    0.5914   19.4594    0.5792   15.5724    0.4144   14.6468    0.3621   18.6832    0.5546   19.1073    0.5673
  1.740   19.8873    0.6066   19.5759    0.5940   15.6558    0.4247   14.7197    0.3706   18.7948    0.5689   19.2214    0.5819
  1.760   20.0093    0.6223   19.6955    0.6094   15.7413    0.4352   14.7943    0.3795   18.9093    0.5836   19.3385    0.5970
  1.780   20.1345    0.6385   19.8181    0.6253   15.8289    0.4461   14.8707    0.3885   19.0267    0.5989   19.4586    0.6126
  1.800   20.2630    0.6552   19.9439    0.6416   15.9186    0.4573   14.9489    0.3979   19.1472    0.6146   19.5818    0.6287
  1.820   20.3948    0.6725   20.0730    0.6585   16.0107    0.4689   15.0289    0.4075   19.2709    0.6309   19.7083    0.6453
  1.840   20.5301    0.6903   20.2054    0.6760   16.1050    0.4809   15.1109    0.4173   19.3978    0.6477   19.8381    0.6625
  1.860   20.6689    0.7088   20.3414    0.6941   16.2017    0.4932   15.1949    0.4275   19.5280    0.6651   19.9714    0.6803
  1.880   20.8115    0.7279   20.4810    0.7128   16.3009    0.5059   15.2809    0.4380   19.6618    0.6830   20.1082    0.6987
  1.900   20.9579    0.7477   20.6244    0.7321   16.4027    0.5191   15.3690    0.4488   19.7991    0.7017   20.2487    0.7177
  1.920   21.1083    0.7682   20.7716    0.7522   16.5071    0.5327   15.4593    0.4600   19.9402    0.7210   20.3930    0.7375
  1.940   21.2627    0.7894   20.9228    0.7730   16.6142    0.5468   15.5518    0.4715   20.0852    0.7409   20.5413    0.7580
  1.960   21.4215    0.8115   21.0783    0.7945   16.7242    0.5614   15.6467    0.4834   20.2342    0.7617   20.6937    0.7792
  1.980   21.5846    0.8343   21.2380    0.8169   16.8371    0.5765   15.7439    0.4956   20.3873    0.7832   20.8503    0.8012
  2.000   21.7523    0.8580   21.4022    0.8401   16.9530    0.5922   15.8436    0.5083   20.5448    0.8056   21.0114    0.8241
  2.020   21.9248    0.8827   21.5711    0.8642   17.0720    0.6084   15.9458    0.5214   20.7067    0.8288   21.1770    0.8479
  2.040   22.1022    0.9083   21.7447    0.8892   17.1944    0.6253   16.0507    0.5350   20.8732    0.8529   21.3474    0.8727
  2.060   22.2847    0.9349   21.9234    0.9153   17.3200    0.6427   16.1582    0.5490   21.0446    0.8780   21.5228    0.8984
  2.080   22.4726    0.9626   22.1074    0.9424   17.4492    0.6609   16.2686    0.5635   21.2211    0.9042   21.7033    0.9252
  2.100   22.6660    0.9915   22.2967    0.9707   17.5820    0.6798   16.3819    0.5786   21.4027    0.9314   21.8891    0.9532
  2.120   22.8651    1.0216   22.4917    1.0002   17.7186    0.6995   16.4982    0.5942   21.5898    0.9598   22.0806    0.9823
  2.140   23.0703    1.0530   22.6926    1.0309   17.8592    0.7200   16.6177    0.6104   21.7826    0.9895   22.2779    1.0127
  2.160   23.2818    1.0857   22.8996    1.0630   18.0038    0.7413   16.7404    0.6272   21.9813    1.0204   22.4812    1.0445
  2.180   23.4998    1.1200   23.1131    1.0965   18.1527    0.7635   16.8664    0.6446   22.1862    1.0527   22.6909    1.0777
  2.200   23.7246    1.1557   23.3332    1.1315   18.3060    0.7867   16.9960    0.6628   22.3975    1.0865   22.9072    1.1125
  2.220   23.9566    1.1932   23.5603    1.1682   18.4640    0.8110   17.1292    0.6816   22.6156    1.1219   23.1305    1.1489
  2.240   24.1961    1.2324   23.7947    1.2065   18.6268    0.8363   17.2661    0.7013   22.8407    1.1590   23.3610    1.1871
  2.260   24.4434    1.2735   24.0368    1.2468   18.7946    0.8628   17.4070    0.7217   23.0732    1.1978   23.5991    1.2271
  2.280   24.6988    1.3166   24.2869    1.2890   18.9678    0.8906   17.5520    0.7430   23.3135    1.2386   23.8452    1.2692
  2.300   24.9628    1.3618   24.5454    1.3334   19.1464    0.9197   17.7012    0.7653   23.5619    1.2814   24.0996    1.3134
  2.320   25.2359    1.4094   24.8127    1.3800   19.3309    0.9502   17.8548    0.7885   23.8188    1.3264   24.3629    1.3599
  2.340   25.5184    1.4595   25.0893    1.4290   19.5214    0.9823   18.0131    0.8127   24.0846    1.3738   24.6353    1.4089
  2.360   25.8108    1.5122   25.3756    1.4807   19.7184    1.0161   18.1763    0.8380   24.3599    1.4238   24.9175    1.4607
  2.380   26.1138    1.5678   25.6722    1.5353   19.9220    1.0516   18.3445    0.8646   24.6451    1.4765   25.2099    1.5153
  2.400   26.4277    1.6265   25.9796    1.5928   20.1326    1.0890   18.5180    0.8923   24.9407    1.5321   25.5132    1.5731
  2.420   26.7533    1.6886   26.2984    1.6537   20.3507    1.1285   18.6970    0.9215   25.2474    1.5909   25.8278    1.6343
  2.440   27.0911    1.7543   26.6293    1.7182   20.5766    1.1702   18.8818    0.9520   25.5656    1.6532   26.1546    1.6992
  2.460   27.4419    1.8239   26.9728    1.7865   20.8107    1.2144   19.0727    0.9841   25.8962    1.7192   26.4941    1.7682
  2.480   27.8065    1.8977   27.3299    1.8590   21.0536    1.2612   19.2699    1.0179   26.2398    1.7893   26.8472    1.8416
  2.500   28.1856    1.9763   27.7012    1.9361   21.3057    1.3108   19.4739    1.0534   26.5973    1.8638   27.2146    1.9197
  2.520   28.5801    2.0598   28.0876    2.0182   21.5675    1.3636   19.6850    1.0909   26.9694    1.9431   27.5974    2.0032
  2.540   28.9911    2.1489   28.4902    2.1058   21.8397    1.4198   19.9034    1.1305   27.3570    2.0277   27.9964    2.0925
  2.560   29.4195    2.2441   28.9099    2.1994   22.1229    1.4798   20.1297    1.1722   27.7612    2.1180   28.4129    2.1883
  2.580   29.8665    2.3460   29.3479    2.2996   22.4178    1.5439   20.3643    1.2165   28.1831    2.2146   28.8479    2.2911
  2.600   30.3333    2.4551   29.8054    2.4071   22.7252    1.6126   20.6075    1.2633   28.6239    2.3182   29.3028    2.4018
  2.620   30.8214    2.5724   30.2838    2.5226   23.0459    1.6863   20.8601    1.3130   29.0848    2.4295   29.7790    2.5213
  2.640   31.3322    2.6986   30.7845    2.6471   23.3809    1.7656   21.1224    1.3658   29.5673    2.5492   30.2781    2.6507
  2.660   31.8673    2.8349   31.3092    2.7814   23.7311    1.8511   21.3950    1.4221   30.0730    2.6783   30.8018    2.7911
  2.680   32.4286    2.9822   31.8596    2.9269   24.0977    1.9436   21.6787    1.4820   30.6035    2.8179   31.3521    2.9439
  2.700   33.0181    3.1420   32.4379    3.0848   24.4819    2.0440   21.9742    1.5461   31.1609    2.9691   31.9311    3.1109
  2.720   33.6379    3.3158   33.0460    3.2567   24.8851    2.1532   22.2821    1.6147   31.7471    3.1333   32.5412    3.2940
  2.740   34.2906    3.5055   33.6866    3.4445   25.3088    2.2725   22.6034    1.6882   32.3646    3.3123   33.1850    3.4956
  2.760   34.9789    3.7130   34.3623    3.6502   25.7547    2.4032   22.9389    1.7672   33.0160    3.5077   33.8654    3.7185
  2.780   35.7057    3.9411   35.0760    3.8765   26.2246    2.5471   23.2897    1.8524   33.7041    3.7219   34.5858    3.9661
  2.800   36.4744    4.1925   35.8312    4.1264   26.7205    2.7063   23.6570    1.9444   34.4321    3.9573   35.3496    4.2428
  2.820   37.2887    4.4710   36.6316    4.4037   27.2449    2.8831   24.0418    2.0439   35.2038    4.2171   36.1609    4.5536
  2.840   38.1528    4.7809   37.4811    4.7127   27.8000    3.0807   24.4456    2.1521   36.0230    4.5048   37.0240    4.9050
  2.860   39.0712    5.1276   38.3845    5.0590   28.3888    3.3028   24.8699    2.2698   36.8944    4.8247   37.9435    5.3053
  2.880   40.0488    5.5175   39.3465    5.4493   29.0141    3.5543   25.3164    2.3985   37.8231    5.1819   38.9242    5.7648
  2.900   41.0910    5.9588   40.3725    5.8920   29.6789    3.8410   25.7869    2.5396   38.8148    5.5829   39.9705    6.2968
  2.920   42.2033    6.4618   41.4679    6.3979   30.3862    4.1706   26.2836    2.6949   39.8760    6.0351   41.0864    6.9186
  2.940   43.3911    7.0393   42.6381    6.9802   31.1383    4.5529   26.8086    2.8665   41.0138    6.5479   42.2736    7.6525
  2.960   44.6591    7.7076   43.8875    7.6561   31.9367    5.0004   27.3648    3.0569   42.2364    7.1331   43.5297    8.5276
