# Phonon frequencies in cm-1
    1           0.000           0.000           0.000        1010.943        1010.943        1010.943
    2           4.937           4.937          19.818        1010.981        1010.981        1235.855
    3           9.875           9.875          39.629        1011.095        1011.095        1235.495
    4          14.814          14.814          59.427        1011.285        1011.285        1234.895
    5          19.754          19.754          79.207        1011.551        1011.551        1234.056
    6          24.695          24.695          98.961        1011.891        1011.891        1232.978
    7          29.638          29.638         118.683        1012.306        1012.306        1231.663
    8          34.584          34.584         138.367        1012.795        1012.795        1230.110
    9          39.532          39.532         158.007        1013.356        1013.356        1228.322
   10          44.483          44.483         177.596        1013.988        1013.988        1226.300
   11          49.437          49.437         197.128        1014.691        1014.691        1224.045
   12          54.395          54.395         216.597        1015.462        1015.462        1221.559
   13          59.356          59.356         235.996        1016.301        1016.301        1218.844
   14          64.321          64.321         255.319        1017.206        1017.206        1215.902
   15          69.289          69.289         274.560        1018.175        1018.175        1212.735
   16          74.262          74.262         293.711        1019.206        1019.206        1209.347
   17          79.238          79.238         312.768        1020.298        1020.298        1205.740
   18          84.217          84.217         331.723        1021.448        1021.448        1201.916
   19          89.201          89.201         350.570        1022.655        1022.655        1197.880
   20          94.187          94.187         369.302        1023.916        1023.916        1193.634
   21          99.176          99.176         387.914        1025.228        1025.228        1189.183
   22         104.169         104.169         406.397        1026.590        1026.590        1184.530
   23         109.163         109.163         424.747        1028.000        1028.000        1179.680
   24         114.159         114.159         442.955        1029.453        1029.453        1174.637
   25         119.157         119.157         461.015        1030.950        1030.950        1169.407
   26         124.155         124.155         478.920        1032.485        1032.485        1163.995
   27         129.153         129.153         496.662        1034.058        1034.058        1158.406
   28         134.150         134.150         514.235        1035.665        1035.665        1152.648
   29         139.146         139.146         531.629        1037.304        1037.304        1146.726
   30         144.139         144.139         548.837        1038.973        1038.973        1140.649
   31         149.128         149.128         565.850        1040.667        1040.667        1134.424
   32         154.113         154.113         582.658        1042.386        1042.386        1128.060
   33         159.091         159.091         599.252        1044.126        1044.126        1121.567
   34         164.063         164.063         615.621        1045.885        1045.885        1114.957
   35         169.026         169.026         631.752        1047.659        1047.659        1108.241
   36         173.980         173.980         647.632        1049.447        1049.447        1101.434
   37         178.922         178.922         663.246        1051.246        1051.246        1094.551
   38         183.852         183.852         678.577        1053.053        1053.053        1087.610
   39         188.768         188.768         693.605        1054.866        1054.866        1080.633
   40         193.667         193.667         708.306        1056.683        1056.683        1073.645
   41         198.549         198.549         722.653        1058.500        1058.500        1066.674
   42         203.412         203.412         736.613        1059.755        1060.317        1060.317
   43         208.253         208.253         750.144        1052.932        1062.129        1062.129
   44         213.071         213.071         763.199        1046.256        1063.936        1063.936
   45         217.865         217.865         775.717        1039.789        1065.735        1065.735
   46         222.631         222.631         787.623        1033.610        1067.524        1067.524
   47         227.368         227.368         798.825        1027.813        1069.301        1069.301
   48         232.074         232.074         809.210        1022.513        1071.064        1071.064
   49         236.746         236.746         818.645        1017.850        1072.811        1072.811
   50         241.383         241.383         826.975        1013.982        1074.541        1074.541
   51         245.983         245.983         834.030        1011.080        1076.251        1076.251
   52         250.542         250.542         839.647        1009.316        1077.941        1077.941
   53         255.059         255.059         843.686        1008.831        1079.608        1079.608
   54         259.532         259.532         846.069        1009.711        1081.251        1081.251
   55         263.958         263.958         846.794        1011.960        1082.869        1082.869
   56         268.334         268.334         845.944        1015.503        1084.460        1084.460
   57         272.659         272.659         843.668        1020.195        1086.023        1086.023
   58         276.930         276.930         840.155        1025.855        1087.558        1087.558
   59         281.145         281.145         835.602        1032.291        1089.062        1089.062
   60         285.301         285.301         830.193        1039.325        1090.536        1090.536
   61         289.396         289.396         824.093        1046.801        1091.978        1091.978
   62         293.427         293.427         817.441        1054.587        1093.387        1093.387
   63         297.393         297.393         810.350        1062.576        1094.762        1094.762
   64         301.290         301.290         802.915        1070.681        1096.104        1096.104
   65         305.116         305.116         795.214        1078.835        1097.410        1097.410
   66         308.870         308.870         787.310        1086.982        1098.682        1098.682
   67         312.548         312.548         779.256        1095.077        1099.918        1099.918
   68         316.148         316.148         771.097        1101.117        1101.117        1103.084
   69         319.669         319.669         762.873        1102.281        1102.281        1110.976
   70         323.107         323.107         754.615        1103.407        1103.407        1118.727
   71         326.461         326.461         746.355        1104.497        1104.497        1126.320
   72         329.729         329.729         738.119        1105.549        1105.549        1133.737
   73         332.907         332.907         729.932        1106.565        1106.565        1140.965
   74         335.995         335.995         721.815        1107.542        1107.542        1147.992
   75         338.990         338.990         713.791        1108.483        1108.483        1154.810
   76         341.890         341.890         705.879        1109.386        1109.386        1161.410
   77         344.693         344.693         698.099        1110.252        1110.252        1167.785
   78         347.397         347.397         690.469        1111.080        1111.080        1173.928
   79         350.001         350.001         683.007        1111.871        1111.871        1179.836
   80         352.502         352.502         675.730        1112.626        1112.626        1185.502
   81         354.899         354.899         668.655        1113.343        1113.343        1190.923
   82         357.190         357.190         661.799        1114.023        1114.023        1196.096
   83         359.373         359.373         655.178        1114.667        1114.667        1201.017
   84         361.448         361.448         648.809        1115.275        1115.275        1205.685
   85         363.412         363.412         642.705        1115.846        1115.846        1210.095
   86         365.264         365.264         636.884        1116.381        1116.381        1214.247
   87         367.003         367.003         631.359        1116.881        1116.881        1218.139
   88         368.627         368.627         626.145        1117.345        1117.345        1221.768
   89         370.137         370.137         621.255        1117.774        1117.774        1225.133
   90         371.529         371.529         616.703        1118.167        1118.167        1228.234
   91         372.804         372.804         612.502        1118.526        1118.526        1231.068
   92         373.960         373.960         608.662        1118.850        1118.850        1233.635
   93         374.996         374.996         605.195        1119.139        1119.139        1235.935
   94         375.913         375.913         602.111        1119.394        1119.394        1237.965
   95         376.708         376.708         599.419        1119.614        1119.614        1239.726
   96         377.383         377.383         597.127        1119.800        1119.800        1241.217
   97         377.935         377.935         595.242        1119.953        1119.953        1242.437
   98         378.365         378.365         593.770        1120.071        1120.071        1243.387
   99         378.672         378.672         592.715        1120.155        1120.155        1244.065
  100         378.857         378.857         592.081        1120.206        1120.206        1244.472
  101         378.918         378.918         591.869        1120.223        1120.223        1244.608
  102         379.022         379.273         591.848        1120.114        1120.243        1244.568
  103         379.333         380.334         591.783        1119.788        1120.301        1244.446
  104         379.851         382.095         591.676        1119.245        1120.399        1244.243
  105         380.572         384.544         591.525        1118.485        1120.536        1243.959
  106         381.495         387.665         591.330        1117.509        1120.713        1243.595
  107         382.617         391.436         591.091        1116.316        1120.928        1243.151
  108         383.932         395.837         590.808        1114.907        1121.184        1242.628
  109         385.437         400.839         590.480        1113.284        1121.480        1242.028
  110         387.126         406.414         590.106        1111.446        1121.815        1241.350
  111         388.993         412.532         589.686        1109.394        1122.192        1240.596
  112         391.031         419.161         589.218        1107.130        1122.608        1239.767
  113         393.235         426.270         588.703        1104.655        1123.066        1238.865
  114         395.596         433.824         588.139        1101.969        1123.565        1237.891
  115         398.107         441.792         587.526        1099.074        1124.106        1236.847
  116         400.760         450.141         586.861        1095.973        1124.689        1235.733
  117         403.547         458.839         586.145        1092.665        1125.314        1234.553
  118         406.460         467.855         585.376        1089.154        1125.981        1233.308
  119         409.490         477.159         584.553        1085.441        1126.692        1232.000
  120         412.630         486.722         583.675        1081.529        1127.445        1230.630
  121         415.869         496.515         582.741        1077.420        1128.243        1229.202
  122         419.200         506.510         581.749        1073.118        1129.084        1227.717
  123         422.615         516.683         580.698        1068.625        1129.968        1226.178
  124         426.104         527.006         579.587        1063.946        1130.897        1224.587
  125         429.659         537.456         578.415        1059.083        1131.871        1222.947
  126         433.274         548.010         577.181        1054.043        1132.889        1221.260
  127         436.938         558.643         575.882        1048.829        1133.951        1219.528
  128         440.645         569.333         574.519        1043.448        1135.058        1217.754
  129         444.387         573.090         580.058        1037.906        1136.209        1215.942
  130         448.156         571.593         590.797        1032.211        1137.405        1214.093
  131         451.946         570.029         601.525        1026.371        1138.645        1212.211
  132         455.749         568.394         612.223        1020.396        1139.929        1210.298
  133         459.559         566.689         622.865        1014.298        1141.257        1208.357
  134         463.369         564.913         633.428        1008.089        1142.628        1206.390
  135         467.174         563.065         643.887        1001.786        1144.041        1204.401
  136         470.967         561.143         654.213         995.406        1145.497        1202.393
  137         474.743         559.148         664.377         988.970        1146.995        1200.367
  138         478.496         557.078         674.346         982.506        1148.534        1198.328
  139         482.222         554.934         684.081         976.043        1150.112        1196.277
  140         485.916         552.714         693.538         969.619        1151.730        1194.218
  141         489.574         550.418         702.666         963.278        1153.386        1192.153
  142         493.190         548.047         711.406         957.077        1155.079        1190.085
  143         496.762         545.600         719.686         951.080        1156.808        1188.017
  144         500.286         543.077         727.422         945.368        1158.571        1185.950
  145         503.758         540.479         734.517         940.035        1160.368        1183.889
  146         507.175         537.806         740.856         935.192        1162.196        1181.835
  147         510.534         535.059         746.312         930.963        1164.055        1179.790
  148         513.833         532.238         750.752         927.481        1165.942        1177.758
  149         517.069         529.344         754.041         924.876        1167.856        1175.740
  150         520.240         526.379         756.068         923.260        1169.794        1173.738
  151         523.344         523.344         756.753         922.713        1171.756        1171.756
  152         520.240         526.379         756.068         923.260        1169.794        1173.738
  153         517.069         529.344         754.041         924.876        1167.856        1175.740
  154         513.833         532.238         750.752         927.481        1165.942        1177.758
  155         510.534         535.059         746.312         930.963        1164.055        1179.790
  156         507.175         537.806         740.856         935.192        1162.196        1181.835
  157         503.758         540.479         734.517         940.035        1160.368        1183.889
  158         500.286         543.077         727.422         945.368        1158.571        1185.950
  159         496.762         545.600         719.686         951.080        1156.808        1188.017
  160         493.190         548.047         711.406         957.077        1155.079        1190.085
  161         489.574         550.418         702.666         963.278        1153.386        1192.153
  162         485.916         552.714         693.538         969.619        1151.730        1194.218
  163         482.222         554.934         684.081         976.043        1150.112        1196.277
  164         478.496         557.078         674.346         982.506        1148.534        1198.328
  165         474.743         559.148         664.377         988.970        1146.995        1200.367
  166         470.967         561.143         654.213         995.406        1145.497        1202.393
  167         467.174         563.065         643.887        1001.786        1144.041        1204.401
  168         463.369         564.913         633.428        1008.089        1142.628        1206.390
  169         459.559         566.689         622.865        1014.298        1141.257        1208.357
  170         455.749         568.394         612.223        1020.396        1139.929        1210.298
  171         451.946         570.029         601.525        1026.371        1138.645        1212.211
  172         448.156         571.593         590.797        1032.211        1137.405        1214.093
  173         444.387         573.090         580.058        1037.906        1136.209        1215.942
  174         440.645         569.333         574.519        1043.448        1135.058        1217.754
  175         436.938         558.643         575.882        1048.829        1133.951        1219.528
  176         433.274         548.010         577.181        1054.043        1132.889        1221.260
  177         429.659         537.456         578.415        1059.083        1131.871        1222.947
  178         426.104         527.006         579.587        1063.946        1130.897        1224.587
  179         422.615         516.683         580.698        1068.625        1129.968        1226.178
  180         419.200         506.510         581.749        1073.118        1129.084        1227.717
  181         415.869         496.515         582.741        1077.420        1128.243        1229.202
  182         412.630         486.722         583.675        1081.529        1127.445        1230.630
  183         409.490         477.159         584.553        1085.441        1126.692        1232.000
  184         406.460         467.855         585.376        1089.154        1125.981        1233.308
  185         403.547         458.839         586.145        1092.665        1125.314        1234.553
  186         400.760         450.141         586.861        1095.973        1124.689        1235.733
  187         398.107         441.792         587.526        1099.074        1124.106        1236.847
  188         395.596         433.824         588.139        1101.969        1123.565        1237.891
  189         393.235         426.270         588.703        1104.655        1123.066        1238.865
  190         391.031         419.161         589.218        1107.130        1122.608        1239.767
  191         388.993         412.532         589.686        1109.394        1122.192        1240.596
  192         387.126         406.414         590.106        1111.446        1121.815        1241.350
  193         385.437         400.839         590.480        1113.284        1121.480        1242.028
  194         383.932         395.837         590.808        1114.907        1121.184        1242.628
  195         382.617         391.436         591.091        1116.316        1120.928        1243.151
