# Phonon frequencies in cm-1
    1         429.357         429.357         471.488         471.488         855.628        1075.197
    2         428.586         428.586         472.215         472.215         855.529        1075.175
    3         426.415         426.415         474.256         474.256         855.232        1075.111
    4         423.160         423.160         477.294         477.294         854.737        1075.004
    5         419.141         419.141         481.011         481.011         854.044        1074.855
    6         414.597         414.597         485.165         485.165         853.153        1074.663
    7         409.691         409.691         489.598         489.598         852.065        1074.430
    8         404.525         404.525         494.203         494.203         850.778        1074.155
    9         399.169         399.169         498.914         498.914         849.292        1073.840
   10         393.669         393.669         503.686         503.686         847.609        1073.485
   11         388.056         388.056         508.487         508.487         845.728        1073.090
   12         382.353         382.353         513.295         513.295         843.648        1072.656
   13         376.576         376.576         518.096         518.096         841.371        1072.185
   14         370.738         370.738         522.876         522.876         838.895        1071.677
   15         364.850         364.850         527.628         527.628         836.221        1071.133
   16         358.917         358.917         532.344         532.344         833.350        1070.554
   17         352.949         352.949         537.019         537.019         830.280        1069.941
   18         346.950         346.950         541.649         541.649         827.013        1069.295
   19         340.925         340.925         546.229         546.229         823.548        1068.618
   20         334.879         334.879         550.756         550.756         819.885        1067.910
   21         328.816         328.816         555.229         555.229         816.026        1067.173
   22         322.739         322.739         559.644         559.644         811.970        1066.408
   23         316.652         316.652         564.000         564.000         807.717        1065.616
   24         310.559         310.559         568.296         568.296         803.269        1064.798
   25         304.461         304.461         572.529         572.529         798.625        1063.956
   26         298.363         298.363         576.700         576.700         793.786        1063.090
   27         292.268         292.268         580.805         580.805         788.752        1062.203
   28         286.177         286.177         584.846         584.846         783.525        1061.295
   29         280.095         280.095         588.820         588.820         778.104        1060.368
   30         274.023         274.023         592.728         592.728         772.492        1059.423
   31         267.964         267.964         596.568         596.568         766.688        1058.461
   32         261.921         261.921         600.340         600.340         760.693        1057.484
   33         255.897         255.897         604.044         604.044         754.509        1056.492
   34         249.894         249.894         607.679         607.679         748.136        1055.488
   35         243.915         243.915         611.245         611.245         741.577        1054.472
   36         237.961         237.961         614.742         614.742         734.830        1053.445
   37         232.037         232.037         618.170         618.170         727.899        1052.409
   38         226.144         226.144         621.528         621.528         720.784        1051.364
   39         220.284         220.284         624.817         624.817         713.487        1050.313
   40         214.461         214.461         628.036         628.036         706.010        1049.256
   41         208.676         208.676         631.186         631.186         698.352        1048.194
   42         202.933         202.933         634.267         634.267         690.517        1047.129
   43         197.232         197.232         637.279         637.279         682.506        1046.061
   44         191.578         191.578         640.222         640.222         674.321        1044.992
   45         185.972         185.972         643.097         643.097         665.963        1043.923
   46         180.416         180.416         645.903         645.903         657.434        1042.855
   47         174.913         174.913         648.642         648.642         648.736        1041.788
   48         169.465         169.465         639.872         651.314         651.314        1040.724
   49         164.074         164.074         630.842         653.918         653.918        1039.664
   50         158.743         158.743         621.649         656.456         656.456        1038.609
   51         153.473         153.473         612.296         658.927         658.927        1037.560
   52         148.268         148.268         602.784         661.334         661.334        1036.518
   53         143.129         143.129         593.115         663.675         663.675        1035.483
   54         138.057         138.057         583.292         665.952         665.952        1034.456
   55         133.057         133.057         573.318         668.165         668.165        1033.439
   56         128.128         128.128         563.194         670.316         670.316        1032.433
   57         123.274         123.274         552.923         672.403         672.403        1031.437
   58         118.497         118.497         542.507         674.429         674.429        1030.453
   59         113.797         113.797         531.950         676.394         676.394        1029.482
   60         109.178         109.178         521.253         678.299         678.299        1028.524
   61         104.641         104.641         510.419         680.144         680.144        1027.581
   62         100.188         100.188         499.452         681.930         681.930        1026.652
   63          95.820          95.820         488.352         683.658         683.658        1025.739
   64          91.540          91.540         477.125         685.329         685.329        1024.842
   65          87.348          87.348         465.771         686.943         686.943        1023.962
   66          83.248          83.248         454.295         688.501         688.501        1023.099
   67          79.239          79.239         442.699         690.004         690.004        1022.255
   68          75.324          75.324         430.985         691.453         691.453        1021.429
   69          71.504          71.504         419.157         692.849         692.849        1020.622
   70          67.780          67.780         407.219         694.192         694.192        1019.835
   71          64.154          64.154         395.172         695.483         695.483        1019.069
   72          60.626          60.626         383.020         696.723         696.723        1018.323
   73          57.198          57.198         370.767         697.912         697.912        1017.598
   74          53.871          53.871         358.415         699.052         699.052        1016.895
   75          50.646          50.646         345.967         700.143         700.143        1016.215
   76          47.523          47.523         333.428         701.186         701.186        1015.556
   77          44.503          44.503         320.799         702.182         702.182        1014.921
   78          41.587          41.587         308.085         703.131         703.131        1014.309
   79          38.775          38.775         295.288         704.034         704.034        1013.720
   80          36.066          36.066         282.413         704.891         704.891        1013.156
   81          33.462          33.462         269.462         705.705         705.705        1012.616
   82          30.961          30.961         256.439         706.474         706.474        1012.100
   83          28.563          28.563         243.347         707.199         707.199        1011.609
   84          26.268          26.268         230.190         707.882         707.882        1011.144
   85          24.074          24.074         216.971         708.523         708.523        1010.703
   86          21.980          21.980         203.695         709.122         709.122        1010.289
   87          19.984          19.984         190.363         709.680         709.680        1009.900
   88          18.084          18.084         176.980         710.197         710.197        1009.537
   89          16.277          16.277         163.550         710.675         710.675        1009.200
   90          14.560          14.560         150.076         711.112         711.112        1008.890
   91          12.928          12.928         136.562         711.510         711.510        1008.606
   92          11.378          11.378         123.010         711.869         711.869        1008.349
   93           9.904           9.904         109.426         712.189         712.189        1008.118
   94           8.501           8.501          95.812         712.471         712.471        1007.915
   95           7.161           7.161          82.173         712.714         712.714        1007.738
   96           5.878           5.878          68.511         712.920         712.920        1007.588
   97           4.642           4.642          54.831         713.088         713.088        1007.466
   98           3.446           3.446          41.136         713.219         713.219        1007.370
   99           2.281           2.281          27.430         713.312         713.312        1007.302
  100           1.135           1.135          13.717         713.368         713.368        1007.261
  101           0.000           0.000           0.000         713.386         713.386         713.386
  102           1.129           8.379          10.849         713.368         713.430        1007.217
  103           2.263          16.757          21.696         713.313         713.561        1007.126
  104           3.404          25.130          32.542         713.220         713.779        1006.974
  105           4.556          33.498          43.385         713.091         714.084        1006.761
  106           5.723          41.858          54.223         712.924         714.476        1006.487
  107           6.909          50.208          65.056         712.720         714.956        1006.153
  108           8.117          58.546          75.884         712.478         715.522        1005.759
  109           9.351          66.870          86.704         712.199         716.175        1005.305
  110          10.613          75.179          97.516         711.881         716.914        1004.790
  111          11.906          83.471         108.318         711.526         717.739        1004.217
  112          13.233          91.742         119.110         711.131         718.651        1003.584
  113          14.598          99.993         129.891         710.698         719.649        1002.892
  114          16.001         108.220         140.660         710.225         720.732        1002.142
  115          17.446         116.422         151.414         709.713         721.900        1001.334
  116          18.934         124.596         162.155         709.161         723.153        1000.468
  117          20.468         132.742         172.879         708.567         724.491         999.546
  118          22.048         140.857         183.586         707.933         725.914         998.567
  119          23.676         148.939         194.275         707.257         727.420         997.532
  120          25.354         156.987         204.945         706.539         729.009         996.442
  121          27.082         164.998         215.594         705.778         730.681         995.297
  122          28.862         172.971         226.221         704.974         732.436         994.099
  123          30.693         180.905         236.825         704.127         734.273         992.847
  124          32.577         188.796         247.405         703.234         736.191         991.543
  125          34.515         196.645         257.959         702.297         738.190         990.188
  126          36.506         204.448         268.486         701.313         740.269         988.782
  127          38.550         212.205         278.984         700.284         742.427         987.326
  128          40.648         219.913         289.453         699.207         744.664         985.822
  129          42.800         227.571         299.890         698.082         746.980         984.270
  130          45.005         235.178         310.295         696.909         749.372         982.672
  131          47.264         242.732         320.664         695.687         751.841         981.028
  132          49.575         250.230         330.998         694.415         754.386         979.340
  133          51.939         257.673         341.294         693.092         757.006         977.610
  134          54.354         265.058         351.551         691.718         759.699         975.838
  135          56.821         272.384         361.766         690.292         762.465         974.026
  136          59.339         279.650         371.938         688.813         765.304         972.175
  137          61.907         286.854         382.065         687.281         768.213         970.287
  138          64.524         293.995         392.144         685.694         771.192         968.364
  139          67.189         301.071         402.174         684.053         774.239         966.408
  140          69.901         308.082         412.153         682.356         777.354         964.420
  141          72.660         315.026         422.078         680.603         780.535         962.402
  142          75.464         321.903         431.947         678.793         783.781         960.357
  143          78.313         328.710         441.756         676.925         787.090         958.287
  144          81.205         335.448         451.505         674.999         790.462         956.193
  145          84.138         342.115         461.188         673.015         793.894         954.080
  146          87.113         348.710         470.804         670.971         797.386         951.948
  147          90.127         355.232         480.350         668.867         800.936         949.802
  148          93.179         361.680         489.821         666.702         804.542         947.645
  149          96.268         368.055         499.215         664.477         808.202         945.479
  150          99.393         374.354         508.527         662.189         811.916         943.308
  151         102.552         380.578         517.753         659.840         815.680         941.136
  152         105.744         386.725         526.889         657.428         819.495         938.967
  153         108.967         392.795         535.931         654.954         823.357         936.806
  154         112.220         398.789         544.872         652.416         827.264         934.658
  155         115.501         404.704         553.708         649.814         831.216         932.527
  156         118.809         410.541         562.432         647.149         835.210         930.420
  157         122.143         416.299         571.038         644.419         839.244         928.342
  158         125.500         421.978         579.520         641.625         843.316         926.301
  159         128.879         427.579         587.869         638.767         847.424         924.302
  160         132.278         433.099         596.078         635.844         851.566         922.355
  161         135.697         438.541         604.138         632.856         855.740         920.468
  162         139.133         443.902         612.039         629.803         859.944         918.650
  163         142.584         449.184         619.771         626.686         864.175         916.912
  164         146.049         454.386         623.504         627.323         868.431         915.263
  165         149.526         459.508         620.258         634.683         872.711         913.716
  166         153.013         464.551         616.948         641.838         877.011         912.284
  167         156.509         469.514         613.574         648.775         881.330         910.980
  168         160.012         474.397         610.136         655.478         885.665         909.818
  169         163.520         479.201         606.635         661.932         890.014         908.814
  170         167.032         483.926         603.071         668.122         894.375         907.983
  171         170.545         488.571         599.445         674.031         898.745         907.343
  172         174.057         493.138         595.758         679.643         903.122         906.909
  173         177.568         497.627         592.010         684.940         906.698         907.503
  174         181.075         502.037         588.202         689.907         906.726         911.887
  175         184.576         506.370         584.334         694.529         907.007         916.270
  176         188.070         510.625         580.409         698.792         907.556         920.651
  177         191.554         514.803         576.426         702.686         908.383         925.027
  178         195.028         518.905         572.387         706.201         909.497         929.396
  179         198.488         522.930         568.294         709.332         910.904         933.755
  180         201.933         526.879         564.147         712.078         912.604         938.102
  181         205.361         530.753         559.948         714.440         914.598         942.435
  182         208.771         534.551         555.698         716.424         916.879         946.751
  183         212.160         538.275         551.399         718.039         919.438         951.048
  184         215.526         541.925         547.054         719.298         922.262         955.324
  185         218.868         542.663         545.502         720.216         925.338         959.576
  186         222.183         538.229         549.005         720.811         928.646         963.803
  187         225.470         533.754         552.435         721.101         932.169         968.001
  188         228.727         529.240         555.794         721.108         935.885         972.170
  189         231.952         524.689         559.081         720.853         939.775         976.306
  190         235.142         520.105         562.296         720.357         943.817         980.407
  191         238.295         515.490         565.441         719.640         947.992         984.471
  192         241.411         510.846         568.516         718.722         952.279         988.496
  193         244.485         506.177         571.521         717.624         956.660         992.481
  194         247.517         501.486         574.457         716.362         961.117         996.422
  195         250.504         496.776         577.324         714.956         965.632        1000.318
