# Phonon frequencies in cm-1
    1          32.541          32.541          38.336          38.336          42.891          42.891          47.641          47.641          57.256          57.256          59.206          59.206          59.972          59.972          66.061          66.061          71.233          71.233          78.140          78.140          82.346          82.346          85.572          85.572          90.439          90.439          91.348          91.348          91.920          91.920          98.229          98.229         106.985         106.985         108.914         108.914         121.579         121.579         132.115         132.115         138.492         138.492         146.797         146.797         162.769         162.769         172.288         172.288
    2          32.510          32.568          38.300          38.367          42.701          43.071          47.605          47.675          57.109          57.387          59.018          59.326          60.008          60.009          66.029          66.103          71.212          71.259          78.087          78.176          82.191          82.498          85.562          85.586          90.330          90.463          91.345          91.371          91.788          92.124          98.188          98.275         106.866         107.092         108.741         109.089         121.392         121.779         132.058         132.171         138.465         138.521         146.792         146.802         162.726         162.812         172.246         172.328
    3          32.475          32.591          38.258          38.391          42.500          43.240          47.566          47.705          56.953          57.484          58.819          59.349          60.081          60.143          66.005          66.153          71.196          71.290          78.016          78.193          82.032          82.645          85.558          85.602          90.162          90.406          91.313          91.383          91.826          92.356          98.153          98.327         106.738         107.181         108.575         109.262         121.220         121.991         131.999         132.226         138.442         138.552         146.786         146.807         162.683         162.853         172.203         172.366
    4          32.436          32.609          38.211          38.410          42.291          43.396          47.524          47.732          56.795          57.514          58.662          59.306          60.165          60.339          65.991          66.212          71.184          71.327          77.929          78.193          81.873          82.787          85.563          85.616          89.965          90.291          91.184          91.443          92.002          92.602          98.123          98.382         106.601         107.244         108.426         109.429         121.064         122.215         131.939         132.279         138.421         138.586         146.780         146.811         162.639         162.895         172.159         172.402
    5          32.392          32.623          38.159          38.422          42.073          43.539          47.480          47.756          56.636          57.437          58.595          59.235          60.253          60.558          65.986          66.279          71.177          71.370          77.826          78.175          81.714          82.923          85.576          85.624          89.760          90.138          91.046          91.516          92.232          92.855          98.101          98.443         106.456         107.269         108.307         109.589         120.924         122.449         131.878         132.330         138.403         138.623         146.774         146.815         162.595         162.936         172.112         172.437
    6          32.344          32.632          38.102          38.428          41.848          43.669          47.435          47.775          56.478          57.249          58.625          59.155          60.341          60.779          65.991          66.355          71.173          71.419          77.708          78.138          81.556          83.051          85.597          85.623          89.558          89.963          90.917          91.593          92.485          93.113          98.085          98.507         106.305         107.241         108.236         109.741         120.801         122.693         131.816         132.379         138.388         138.661         146.767         146.818         162.550         162.976         172.064         172.470
    7          32.292          32.637          38.041          38.427          41.615          43.783          47.388          47.790          56.322          56.986          58.718          59.075          60.426          60.993          66.006          66.438          71.173          71.474          77.575          78.084          81.400          83.174          85.607          85.624          89.367          89.774          90.800          91.671          92.751          93.371          98.077          98.574         106.147         107.155         108.217         109.882         120.698         122.945         131.754         132.425         138.377         138.702         146.760         146.821         162.504         163.016         172.014         172.501
    8          32.235          32.637          37.975          38.419          41.377          43.882          47.339          47.801          56.169          56.680          58.841          59.000          60.507          61.197          66.031          66.530          71.176          71.537          77.429          78.014          81.246          83.291          85.574          85.657          89.191          89.581          90.693          91.749          93.024          93.629          98.078          98.646         105.982         107.021         108.242         110.013         120.613         123.206         131.692         132.469         138.369         138.745         146.752         146.824         162.458         163.055         171.963         172.531
    9          32.174          32.633          37.905          38.404          41.132          43.965          47.289          47.807          56.020          56.348          58.932          58.976          60.585          61.387          66.067          66.630          71.183          71.606          77.271          77.927          81.096          83.403          85.518          85.691          89.037          89.389          90.596          91.827          93.300          93.883          98.088          98.720         105.812         106.855         108.296         110.131         120.549         123.473         131.628         132.510         138.365         138.789         146.745         146.826         162.412         163.094         171.910         172.559
   10          32.109          32.624          37.831          38.382          40.882          44.031          47.238          47.808          55.875          55.998          58.873          59.113          60.660          61.560          66.114          66.736          71.192          71.683          77.101          77.826          80.950          83.511          85.436          85.723          88.906          89.203          90.509          91.903          93.579          94.132          98.108          98.798         105.636         106.672         108.365         110.236         120.506         123.748         131.565         132.548         138.364         138.835         146.737         146.828         162.364         163.132         171.856         172.585
   11          32.040          32.610          37.753          38.352          40.628          44.079          47.186          47.804          55.636          55.735          58.825          59.244          60.733          61.716          66.172          66.849          71.203          71.767          76.922          77.711          80.808          83.616          85.328          85.747          88.801          89.026          90.431          91.978          93.858          94.373          98.140          98.878         105.454         106.478         108.443         110.329         120.483         124.027         131.502         132.584         138.367         138.883         146.729         146.829         162.317         163.170         171.800         172.610
   12          31.965          32.591          37.672          38.316          40.370          44.108          47.134          47.794          55.265          55.600          58.788          59.366          60.808          61.854          66.241          66.969          71.218          71.859          76.734          77.583          80.669          83.719          85.192          85.760          88.721          88.863          90.364          92.050          94.137          94.605          98.184          98.960         105.266         106.280         108.527         110.408         120.482         124.312         131.438         132.616         138.373         138.933         146.720         146.830         162.269         163.208         171.742         172.633
   13          31.886          32.568          37.587          38.272          40.108          44.120          47.081          47.780          54.886          55.471          58.765          59.471          60.886          61.973          66.321          67.093          71.234          71.958          76.538          77.445          80.535          83.822          85.029          85.757          88.664          88.713          90.309          92.121          94.415          94.826          98.242          99.045         105.073         106.080         108.613         110.473         120.502         124.602         131.375         132.645         138.384         138.984         146.711         146.830         162.220         163.245         171.683         172.654
   14          31.803          32.539          37.498          38.221          39.844          44.112          47.028          47.760          54.499          55.346          58.756          59.558          60.971          62.073          66.411          67.223          71.252          72.065          76.337          77.297          80.405          83.925          84.842          85.735          88.580          88.628          90.268          92.190          94.692          95.032          98.316          99.131         104.875         105.882         108.700         110.525         120.543         124.896         131.312         132.670         138.399         139.037         146.702         146.831         162.171         163.281         171.622         172.673
   15          31.714          32.505          37.405          38.162          39.578          44.085          46.975          47.735          54.107          55.228          58.760          59.621          61.064          62.153          66.511          67.357          71.272          72.178          76.132          77.142          80.279          84.029          84.634          85.690          88.460          88.610          90.242          92.257          94.967          95.222          98.405          99.219         104.673         105.686         108.788         110.565         120.605         125.193         131.249         132.692         138.418         139.091         146.693         146.830         162.121         163.317         171.560         172.691
   16          31.621          32.465          37.309          38.095          39.311          44.039          46.922          47.705          53.710          55.114          58.778          59.659          61.167          62.216          66.618          67.494          71.294          72.298          75.924          76.981          80.157          84.133          84.408          85.624          88.354          88.606          90.234          92.322          95.239          95.395          98.511          99.307         104.466         105.495         108.877         110.592         120.686         125.493         131.186         132.710         138.441         139.147         146.683         146.830         162.070         163.353         171.497         172.707
   17          31.522          32.420          37.208          38.021          39.043          43.975          46.868          47.670          53.308          55.006          58.810          59.672          61.279          62.261          66.733          67.634          71.317          72.423          75.715          76.815          80.039          84.168          84.239          85.536          88.257          88.613          90.245          92.384          95.509          95.549          98.633          99.396         104.256         105.309         108.965         110.607         120.786         125.796         131.124         132.724         138.468         139.204         146.674         146.828         162.019         163.388         171.432         172.721
   18          31.417          32.369          37.102          37.940          38.777          43.892          46.815          47.629          52.902          54.903          58.857          59.660          61.400          62.289          66.853          67.776          71.342          72.552          75.509          76.646          79.924          83.915          84.345          85.431          88.166          88.628          90.276          92.445          95.684          95.776          98.772          99.484         104.043         105.131         109.054         110.612         120.904         126.100         131.063         132.735         138.499         139.262         146.664         146.827         161.968         163.423         171.365         172.734
   19          31.307          32.312          36.990          37.850          38.513          43.792          46.763          47.584          52.493          54.805          58.916          59.625          61.526          62.302          66.978          67.920          71.367          72.684          75.307          76.475          79.812          83.653          84.450          85.313          88.077          88.649          90.327          92.504          95.799          96.039          98.926          99.571         103.828         104.962         109.143         110.608         121.038         126.407         131.002         132.741         138.534         139.321         146.654         146.825         161.916         163.457         171.297         172.745
   20          31.192          32.250          36.872          37.754          38.254          43.675          46.711          47.533          52.080          54.710          58.989          59.570          61.655          62.302          67.105          68.065          71.394          72.814          75.113          76.304          79.704          83.384          84.550          85.188          87.988          88.672          90.396          92.561          95.895          96.298          99.092          99.655         103.613         104.803         109.232         110.595         121.188         126.715         130.941         132.744         138.574         139.382         146.644         146.823         161.864         163.491         171.228         172.755
   21          31.070          32.181          36.744          37.649          38.001          43.542          46.659          47.478          51.665          54.618          59.073          59.495          61.787          62.289          67.233          68.212          71.422          72.938          74.935          76.133          79.598          83.109          84.631          85.074          87.896          88.698          90.482          92.615          95.974          96.553          99.268          99.736         103.400         104.656         109.321         110.574         121.353         127.023         130.882         132.744         138.617         139.443         146.633         146.820         161.811         163.525         171.158         172.763
   22          30.941          32.105          36.605          37.538          37.757          43.395          46.608          47.418          51.248          54.529          59.169          59.402          61.917          62.266          67.361          68.358          71.450          73.047          74.779          75.965          79.496          82.830          84.655          85.014          87.802          88.724          90.583          92.668          96.036          96.803          99.451          99.812         103.190         104.522         109.410         110.547         121.530         127.333         130.823         132.739         138.665         139.506         146.623         146.817         161.757         163.558         171.086         172.769
   23          30.806          32.022          36.452          37.418          37.526          43.234          46.558          47.354          50.829          54.441          59.274          59.294          62.045          62.234          67.487          68.504          71.480          73.130          74.659          75.800          79.396          82.549          84.580          85.049          87.704          88.749          90.697          92.718          96.083          97.048          99.639          99.879         102.986         104.403         109.501         110.515         121.720         127.642         130.765         132.731         138.716         139.570         146.612         146.813         161.703         163.590         171.013         172.773
   24          30.664          31.933          36.282          37.292          37.311          43.062          46.509          47.284          50.409          54.353          59.170          59.389          62.170          62.196          67.611          68.650          71.509          73.170          74.590          75.639          79.299          82.266          84.449          85.139          87.603          88.773          90.822          92.766          96.116          97.286          99.827          99.936         102.792         104.300         109.591         110.478         121.920         127.951         130.708         132.720         138.771         139.634         146.601         146.809         161.648         163.623         170.938         172.776
   25          30.514          31.836          36.094          37.113          37.158          42.879          46.460          47.211          49.988          54.264          59.032          59.511          62.152          62.289          67.731          68.795          71.539          73.157          74.585          75.484          79.205          81.982          84.299          85.249          87.498          88.795          90.956          92.812          96.136          97.519          99.977         100.013         102.612         104.216         109.683         110.437         122.130         128.259         130.651         132.706         138.830         139.700         146.590         146.805         161.593         163.654         170.863         172.778
