# Phonon frequencies in cm-1
    1           0.000           0.000           0.000         454.333         454.333         454.333
    2           2.880           2.880           4.514         454.323         454.323         454.323
    3           5.759           5.759           9.029         454.292         454.292         454.294
    4           8.635           8.635          13.545         454.240         454.240         454.244
    5          11.507          11.507          18.061         454.168         454.168         454.174
    6          14.372          14.372          22.578         454.076         454.076         454.085
    7          17.231          17.231          27.097         453.964         453.964         453.977
    8          20.081          20.081          31.617         453.831         453.831         453.848
    9          22.921          22.921          36.139         453.680         453.680         453.701
   10          25.749          25.749          40.664         453.509         453.509         453.534
   11          28.565          28.565          45.190         453.319         453.319         453.349
   12          31.366          31.366          49.719         453.112         453.112         453.145
   13          34.151          34.151          54.250         452.886         452.886         452.923
   14          36.918          36.918          58.784         452.644         452.644         452.682
   15          39.667          39.667          63.320         452.385         452.385         452.424
   16          42.395          42.395          67.859         452.110         452.110         452.148
   17          45.102          45.102          72.401         451.820         451.820         451.855
   18          47.785          47.785          76.945         451.515         451.515         451.545
   19          50.444          50.444          81.492         451.197         451.197         451.219
   20          53.076          53.076          86.040         450.866         450.866         450.877
   21          55.680          55.680          90.591         450.519         450.523         450.523
   22          58.255          58.255          95.143         450.146         450.169         450.169
   23          60.799          60.799          99.697         449.758         449.805         449.805
   24          63.311          63.311         104.251         449.355         449.432         449.432
   25          65.788          65.788         108.807         448.939         449.050         449.050
   26          68.231          68.231         113.362         448.509         448.661         448.661
   27          70.636          70.636         117.917         448.067         448.266         448.266
   28          73.003          73.003         122.471         447.611         447.867         447.867
   29          75.330          75.330         127.023         447.144         447.463         447.463
   30          77.616          77.616         131.573         446.664         447.056         447.056
   31          79.858          79.858         136.120         446.174         446.648         446.648
   32          82.057          82.057         140.664         445.673         446.239         446.239
   33          84.209          84.209         145.203         445.161         445.831         445.831
   34          86.314          86.314         149.736         444.639         445.424         445.424
   35          88.370          88.370         154.263         444.108         445.021         445.021
   36          90.376          90.376         158.782         443.568         444.622         444.622
   37          92.330          92.330         163.294         443.019         444.228         444.228
   38          94.231          94.231         167.796         442.462         443.840         443.840
   39          96.078          96.078         172.287         441.896         443.460         443.460
   40          97.870          97.870         176.767         441.323         443.089         443.089
   41          99.604          99.604         181.235         440.743         442.728         442.728
   42         101.281         101.281         185.688         440.156         442.377         442.377
   43         102.899         102.899         190.126         439.561         442.039         442.039
   44         104.456         104.456         194.548         438.961         441.714         441.714
   45         105.953         105.953         198.953         438.354         441.402         441.402
   46         107.387         107.387         203.339         437.740         441.106         441.106
   47         108.759         108.759         207.704         437.121         440.825         440.825
   48         110.068         110.068         212.048         436.495         440.561         440.561
   49         111.312         111.312         216.369         435.864         440.314         440.314
   50         112.491         112.491         220.666         435.227         440.085         440.085
   51         113.605         113.605         224.938         434.584         439.874         439.874
   52         114.654         114.654         229.183         433.935         439.683         439.683
   53         115.638         115.638         233.399         433.280         439.511         439.511
   54         116.555         116.555         237.586         432.619         439.359         439.359
   55         117.408         117.408         241.742         431.951         439.228         439.228
   56         118.194         118.194         245.866         431.277         439.117         439.117
   57         118.916         118.916         249.957         430.596         439.026         439.026
   58         119.574         119.574         254.012         429.908         438.956         438.956
   59         120.167         120.167         258.031         429.213         438.906         438.906
   60         120.698         120.698         262.013         428.509         438.877         438.877
   61         121.166         121.166         265.956         427.797         438.868         438.868
   62         121.573         121.573         269.860         427.076         438.878         438.878
   63         121.921         121.921         273.722         426.345         438.908         438.908
   64         122.211         122.211         277.541         425.605         438.956         438.956
   65         122.444         122.444         281.318         424.853         439.022         439.022
   66         122.621         122.621         285.049         424.091         439.106         439.106
   67         122.746         122.746         288.735         423.316         439.206         439.206
   68         122.820         122.820         292.375         422.528         439.322         439.322
   69         122.845         122.845         295.966         421.726         439.452         439.452
   70         122.824         122.824         299.509         420.910         439.597         439.597
   71         122.758         122.758         303.003         420.079         439.754         439.754
   72         122.652         122.652         306.446         419.231         439.922         439.922
   73         122.506         122.506         309.837         418.365         440.101         440.101
   74         122.325         122.325         313.177         417.482         440.289         440.289
   75         122.110         122.110         316.464         416.579         440.486         440.486
   76         121.866         121.866         319.698         415.655         440.688         440.688
   77         121.596         121.596         322.878         414.710         440.897         440.897
   78         121.301         121.301         326.003         413.742         441.109         441.109
   79         120.987         120.987         329.074         412.750         441.324         441.324
   80         120.655         120.655         332.089         411.734         441.541         441.541
   81         120.310         120.310         335.049         410.691         441.758         441.758
   82         119.954         119.954         337.952         409.621         441.974         441.974
   83         119.592         119.592         340.799         408.522         442.187         442.187
   84         119.226         119.226         343.590         407.394         442.397         442.397
   85         118.859         118.859         346.324         406.235         442.602         442.602
   86         118.496         118.496         349.002         405.043         442.801         442.801
   87         118.139         118.139         351.622         403.819         442.992         442.992
   88         117.791         117.791         354.187         402.559         443.176         443.176
   89         117.456         117.456         356.695         401.264         443.351         443.351
   90         117.135         117.135         359.146         399.932         443.515         443.515
   91         116.833         116.833         361.542         398.562         443.668         443.668
   92         116.551         116.551         363.882         397.152         443.809         443.809
   93         116.292         116.292         366.167         395.702         443.937         443.937
   94         116.058         116.058         368.397         394.211         444.052         444.052
   95         115.851         115.851         370.572         392.676         444.153         444.153
   96         115.673         115.673         372.693         391.098         444.240         444.240
   97         115.525         115.525         374.762         389.475         444.311         444.311
   98         115.408         115.408         376.777         387.807         444.367         444.367
   99         115.325         115.325         378.741         386.091         444.407         444.407
  100         115.274         115.274         380.653         384.327         444.431         444.431
  101         115.257         115.257         382.515         382.515         444.439         444.439
  102         115.320         115.320         382.474         382.474         444.438         444.438
  103         115.508         115.508         382.351         382.351         444.433         444.433
  104         115.820         115.820         382.147         382.147         444.425         444.425
  105         116.255         116.255         381.861         381.861         444.413         444.413
  106         116.811         116.811         381.496         381.496         444.398         444.398
  107         117.485         117.485         381.052         381.052         444.379         444.379
  108         118.273         118.273         380.531         380.531         444.356         444.356
  109         119.172         119.172         379.934         379.934         444.328         444.328
  110         120.178         120.178         379.264         379.264         444.296         444.296
  111         121.287         121.287         378.522         378.522         444.258         444.258
  112         122.492         122.492         377.711         377.711         444.215         444.215
  113         123.790         123.790         376.834         376.834         444.167         444.167
  114         125.175         125.175         375.892         375.892         444.112         444.112
  115         126.641         126.641         374.890         374.890         444.052         444.052
  116         128.182         128.182         373.829         373.829         443.985         443.985
  117         129.793         129.793         372.713         372.713         443.912         443.912
  118         131.466         131.466         371.546         371.546         443.832         443.832
  119         133.197         133.197         370.331         370.331         443.746         443.746
  120         134.979         134.979         369.071         369.071         443.654         443.654
  121         136.806         136.806         367.771         367.771         443.556         443.556
  122         138.670         138.670         366.433         366.433         443.452         443.452
  123         140.567         140.567         365.064         365.064         443.343         443.343
  124         142.489         142.489         363.666         363.666         443.229         443.229
  125         144.430         144.430         362.243         362.243         443.110         443.110
  126         146.383         146.383         360.802         360.802         442.988         442.988
  127         148.342         148.342         359.346         359.346         442.862         442.862
  128         150.301         150.301         357.880         357.880         442.733         442.733
  129         152.252         152.252         356.410         356.410         442.601         442.601
  130         154.189         154.189         354.940         354.940         442.469         442.469
  131         156.105         156.105         353.477         353.477         442.335         442.335
  132         157.993         157.993         352.026         352.026         442.202         442.202
  133         159.845         159.845         350.593         350.593         442.069         442.069
  134         161.656         161.656         349.184         349.184         441.938         441.938
  135         163.417         163.417         347.805         347.805         441.810         441.810
  136         165.122         165.122         346.463         346.463         441.684         441.684
  137         166.763         166.763         345.165         345.165         441.563         441.563
  138         168.332         168.332         343.917         343.917         441.446         441.446
  139         169.823         169.823         342.725         342.725         441.334         441.334
  140         171.228         171.228         341.597         341.597         441.229         441.229
  141         172.540         172.540         340.540         340.540         441.130         441.130
  142         173.752         173.752         339.559         339.559         441.039         441.039
  143         174.858         174.858         338.662         338.662         440.955         440.955
  144         175.850         175.850         337.853         337.853         440.881         440.881
  145         176.723         176.723         337.140         337.140         440.815         440.815
  146         177.472         177.472         336.527         336.527         440.758         440.758
  147         178.091         178.091         336.019         336.019         440.711         440.711
  148         178.577         178.577         335.619         335.619         440.675         440.675
  149         178.927         178.927         335.332         335.332         440.648         440.648
  150         179.138         179.138         335.158         335.158         440.633         440.633
  151         179.208         179.208         335.100         335.100         440.627         440.627
  152         179.138         179.138         335.158         335.158         440.633         440.633
  153         178.927         178.927         335.332         335.332         440.648         440.648
  154         178.577         178.577         335.619         335.619         440.675         440.675
  155         178.091         178.091         336.019         336.019         440.711         440.711
  156         177.472         177.472         336.527         336.527         440.758         440.758
  157         176.723         176.723         337.140         337.140         440.815         440.815
  158         175.850         175.850         337.853         337.853         440.881         440.881
  159         174.858         174.858         338.662         338.662         440.955         440.955
  160         173.752         173.752         339.559         339.559         441.039         441.039
  161         172.540         172.540         340.540         340.540         441.130         441.130
  162         171.228         171.228         341.597         341.597         441.229         441.229
  163         169.823         169.823         342.725         342.725         441.334         441.334
  164         168.332         168.332         343.917         343.917         441.446         441.446
  165         166.763         166.763         345.165         345.165         441.563         441.563
  166         165.122         165.122         346.463         346.463         441.684         441.684
  167         163.417         163.417         347.805         347.805         441.810         441.810
  168         161.656         161.656         349.184         349.184         441.938         441.938
  169         159.845         159.845         350.593         350.593         442.069         442.069
  170         157.993         157.993         352.026         352.026         442.202         442.202
  171         156.105         156.105         353.477         353.477         442.335         442.335
  172         154.189         154.189         354.940         354.940         442.469         442.469
  173         152.252         152.252         356.410         356.410         442.601         442.601
  174         150.301         150.301         357.880         357.880         442.733         442.733
  175         148.342         148.342         359.346         359.346         442.862         442.862
  176         146.383         146.383         360.802         360.802         442.988         442.988
  177         144.430         144.430         362.243         362.243         443.110         443.110
  178         142.489         142.489         363.666         363.666         443.229         443.229
  179         140.567         140.567         365.064         365.064         443.343         443.343
  180         138.670         138.670         366.433         366.433         443.452         443.452
  181         136.806         136.806         367.771         367.771         443.556         443.556
  182         134.979         134.979         369.071         369.071         443.654         443.654
  183         133.197         133.197         370.331         370.331         443.746         443.746
  184         131.466         131.466         371.546         371.546         443.832         443.832
  185         129.793         129.793         372.713         372.713         443.912         443.912
  186         128.182         128.182         373.829         373.829         443.985         443.985
  187         126.641         126.641         374.890         374.890         444.052         444.052
  188         125.175         125.175         375.892         375.892         444.112         444.112
  189         123.790         123.790         376.834         376.834         444.167         444.167
  190         122.492         122.492         377.711         377.711         444.215         444.215
  191         121.287         121.287         378.522         378.522         444.258         444.258
  192         120.178         120.178         379.264         379.264         444.296         444.296
  193         119.172         119.172         379.934         379.934         444.328         444.328
  194         118.273         118.273         380.531         380.531         444.356         444.356
  195         117.485         117.485         381.052         381.052         444.379         444.379
