# Phonon frequencies in cm-1
    1           0.000           0.000           0.000         454.333         454.333         454.333
    2           2.880           2.880           4.514         454.323         454.323         454.323
    3           5.759           5.759           9.029         454.292         454.292         454.294
    4           8.635           8.635          13.545         454.240         454.240         454.244
    5          11.507          11.507          18.061         454.168         454.168         454.174
    6          14.372          14.372          22.578         454.076         454.076         454.085
    7          17.231          17.231          27.097         453.964         453.964         453.977
    8          20.081          20.081          31.617         453.831         453.831         453.848
    9          22.921          22.921          36.139         453.680         453.680         453.701
   10          25.749          25.749          40.664         453.509         453.509         453.534
   11          28.565          28.565          45.190         453.319         453.319         453.349
   12          31.366          31.366          49.719         453.112         453.112         453.145
   13          34.151          34.151          54.250         452.886         452.886         452.923
   14          36.918          36.918          58.784         452.644         452.644         452.682
   15          39.667          39.667          63.320         452.385         452.385         452.424
   16          42.395          42.395          67.859         452.110         452.110         452.148
   17          45.102          45.102          72.401         451.820         451.820         451.855
   18          47.785          47.785          76.945         451.515         451.515         451.545
   19          50.444          50.444          81.492         451.197         451.197         451.219
   20          53.076          53.076          86.040         450.866         450.866         450.877
   21          55.680          55.680          90.591         450.519         450.523         450.523
   22          58.255          58.255          95.143         450.146         450.169         450.169
   23          60.799          60.799          99.697         449.758         449.805         449.805
   24          63.311          63.311         104.251         449.355         449.432         449.432
   25          65.788          65.788         108.807         448.939         449.050         449.050
   26          68.231          68.231         113.362         448.509         448.661         448.661
   27          70.636          70.636         117.917         448.067         448.266         448.266
   28          73.003          73.003         122.471         447.611         447.867         447.867
   29          75.330          75.330         127.023         447.144         447.463         447.463
   30          77.616          77.616         131.573         446.664         447.056         447.056
   31          79.858          79.858         136.120         446.174         446.648         446.648
   32          82.057          82.057         140.664         445.673         446.239         446.239
   33          84.209          84.209         145.203         445.161         445.831         445.831
   34          86.314          86.314         149.736         444.639         445.424         445.424
   35          88.370          88.370         154.263         444.108         445.021         445.021
   36          90.376          90.376         158.782         443.568         444.622         444.622
   37          92.330          92.330         163.294         443.019         444.228         444.228
   38          94.231          94.231         167.796         442.462         443.840         443.840
   39          96.078          96.078         172.287         441.896         443.460         443.460
   40          97.870          97.870         176.767         441.323         443.089         443.089
   41          99.604          99.604         181.235         440.743         442.728         442.728
   42         101.281         101.281         185.688         440.156         442.377         442.377
   43         102.899         102.899         190.126         439.561         442.039         442.039
   44         104.456         104.456         194.548         438.961         441.714         441.714
   45         105.953         105.953         198.953         438.354         441.402         441.402
   46         107.387         107.387         203.339         437.740         441.106         441.106
   47         108.759         108.759         207.704         437.121         440.825         440.825
   48         110.068         110.068         212.048         436.495         440.561         440.561
   49         111.312         111.312         216.369         435.864         440.314         440.314
   50         112.491         112.491         220.666         435.227         440.085         440.085
   51         113.605         113.605         224.938         434.584         439.874         439.874
   52         114.654         114.654         229.183         433.935         439.683         439.683
   53         115.638         115.638         233.399         433.280         439.511         439.511
   54         116.555         116.555         237.586         432.619         439.359         439.359
   55         117.408         117.408         241.742         431.951         439.228         439.228
   56         118.194         118.194         245.866         431.277         439.117         439.117
   57         118.916         118.916         249.957         430.596         439.026         439.026
   58         119.574         119.574         254.012         429.908         438.956         438.956
   59         120.167         120.167         258.031         429.213         438.906         438.906
   60         120.698         120.698         262.013         428.509         438.877         438.877
   61         121.166         121.166         265.956         427.797         438.868         438.868
   62         121.573         121.573         269.860         427.076         438.878         438.878
   63         121.921         121.921         273.722         426.345         438.908         438.908
   64         122.211         122.211         277.541         425.605         438.956         438.956
   65         122.444         122.444         281.318         424.853         439.022         439.022
   66         122.621         122.621         285.049         424.091         439.106         439.106
   67         122.746         122.746         288.735         423.316         439.206         439.206
   68         122.820         122.820         292.375         422.528         439.322         439.322
   69         122.845         122.845         295.966         421.726         439.452         439.452
   70         122.824         122.824         299.509         420.910         439.597         439.597
   71         122.758         122.758         303.003         420.079         439.754         439.754
   72         122.652         122.652         306.446         419.231         439.922         439.922
   73         122.506         122.506         309.837         418.365         440.101         440.101
   74         122.325         122.325         313.177         417.482         440.289         440.289
   75         122.110         122.110         316.464         416.579         440.486         440.486
   76         121.866         121.866         319.698         415.655         440.688         440.688
   77         121.596         121.596         322.878         414.710         440.897         440.897
   78         121.301         121.301         326.003         413.742         441.109         441.109
   79         120.987         120.987         329.074         412.750         441.324         441.324
   80         120.655         120.655         332.089         411.734         441.541         441.541
   81         120.310         120.310         335.049         410.691         441.758         441.758
   82         119.954         119.954         337.952         409.621         441.974         441.974
   83         119.592         119.592         340.799         408.522         442.187         442.187
   84         119.226         119.226         343.590         407.394         442.397         442.397
   85         118.859         118.859         346.324         406.235         442.602         442.602
   86         118.496         118.496         349.002         405.043         442.801         442.801
   87         118.139         118.139         351.622         403.819         442.992         442.992
   88         117.791         117.791         354.187         402.559         443.176         443.176
   89         117.456         117.456         356.695         401.264         443.351         443.351
   90         117.135         117.135         359.146         399.932         443.515         443.515
   91         116.833         116.833         361.542         398.562         443.668         443.668
   92         116.551         116.551         363.882         397.152         443.809         443.809
   93         116.292         116.292         366.167         395.702         443.937         443.937
   94         116.058         116.058         368.397         394.211         444.052         444.052
   95         115.851         115.851         370.572         392.676         444.153         444.153
   96         115.673         115.673         372.693         391.098         444.240         444.240
   97         115.525         115.525         374.762         389.475         444.311         444.311
   98         115.408         115.408         376.777         387.807         444.367         444.367
   99         115.325         115.325         378.741         386.091         444.407         444.407
  100         115.274         115.274         380.653         384.327         444.431         444.431
  101         115.257         115.257         382.515         382.515         444.439         444.439
  102         115.323         115.323         382.472         382.472         444.438         444.438
  103         115.518         115.518         382.344         382.344         444.433         444.433
  104         115.843         115.843         382.131         382.131         444.424         444.424
  105         116.296         116.296         381.834         381.834         444.412         444.412
  106         116.875         116.875         381.454         381.454         444.396         444.396
  107         117.575         117.575         380.992         380.992         444.377         444.377
  108         118.395         118.395         380.450         380.450         444.352         444.352
  109         119.329         119.329         379.830         379.830         444.323         444.323
  110         120.374         120.374         379.133         379.133         444.289         444.289
  111         121.525         121.525         378.362         378.362         444.250         444.250
  112         122.776         122.776         377.520         377.520         444.205         444.205
  113         124.122         124.122         376.609         376.609         444.154         444.154
  114         125.556         125.556         375.632         375.632         444.097         444.097
  115         127.074         127.074         374.592         374.592         444.033         444.033
  116         128.668         128.668         373.493         373.493         443.963         443.963
  117         130.333         130.333         372.338         372.338         443.886         443.886
  118         132.061         132.061         371.130         371.130         443.803         443.803
  119         133.846         133.846         369.873         369.873         443.713         443.713
  120         135.683         135.683         368.571         368.571         443.617         443.617
  121         137.562         137.562         367.229         367.229         443.515         443.515
  122         139.480         139.480         365.850         365.850         443.406         443.406
  123         141.427         141.427         364.439         364.439         443.293         443.293
  124         143.398         143.398         363.001         363.001         443.174         443.174
  125         145.385         145.385         361.540         361.540         443.051         443.051
  126         147.382         147.382         360.061         360.061         442.924         442.924
  127         149.382         149.382         358.569         358.569         442.793         442.793
  128         151.377         151.377         357.070         357.070         442.660         442.660
  129         153.361         153.361         355.570         355.570         442.526         442.526
  130         155.326         155.326         354.073         354.073         442.390         442.390
  131         157.264         157.264         352.587         352.587         442.254         442.254
  132         159.169         159.169         351.117         351.117         442.118         442.118
  133         161.033         161.033         349.669         349.669         441.984         441.984
  134         162.848         162.848         348.252         348.252         441.852         441.852
  135         164.607         164.607         346.870         346.870         441.722         441.722
  136         166.301         166.301         345.531         345.531         441.597         441.597
  137         167.923         167.923         344.242         344.242         441.476         441.476
  138         169.466         169.466         343.011         343.011         441.361         441.361
  139         170.921         170.921         341.845         341.845         441.252         441.252
  140         172.280         172.280         340.749         340.749         441.150         441.150
  141         173.537         173.537         339.733         339.733         441.055         441.055
  142         174.685         174.685         338.802         338.802         440.969         440.969
  143         175.715         175.715         337.963         337.963         440.891         440.891
  144         176.623         176.623         337.222         337.222         440.822         440.822
  145         177.401         177.401         336.585         336.585         440.764         440.764
  146         178.045         178.045         336.056         336.056         440.715         440.715
  147         178.551         178.551         335.641         335.641         440.677         440.677
  148         178.915         178.915         335.341         335.341         440.649         440.649
  149         179.135         179.135         335.161         335.161         440.633         440.633
  150         179.208         179.208         335.100         335.100         440.627         440.627
  151         179.135         179.135         335.161         335.161         440.633         440.633
  152         178.915         178.915         335.341         335.341         440.649         440.649
  153         178.551         178.551         335.641         335.641         440.677         440.677
  154         178.045         178.045         336.056         336.056         440.715         440.715
  155         177.401         177.401         336.585         336.585         440.764         440.764
  156         176.623         176.623         337.222         337.222         440.822         440.822
  157         175.715         175.715         337.963         337.963         440.891         440.891
  158         174.685         174.685         338.802         338.802         440.969         440.969
  159         173.537         173.537         339.733         339.733         441.055         441.055
  160         172.280         172.280         340.749         340.749         441.150         441.150
  161         170.921         170.921         341.845         341.845         441.252         441.252
  162         169.466         169.466         343.011         343.011         441.361         441.361
  163         167.923         167.923         344.242         344.242         441.476         441.476
  164         166.301         166.301         345.531         345.531         441.597         441.597
  165         164.607         164.607         346.870         346.870         441.722         441.722
  166         162.848         162.848         348.252         348.252         441.852         441.852
  167         161.033         161.033         349.669         349.669         441.984         441.984
  168         159.169         159.169         351.117         351.117         442.118         442.118
  169         157.264         157.264         352.587         352.587         442.254         442.254
  170         155.326         155.326         354.073         354.073         442.390         442.390
  171         153.361         153.361         355.570         355.570         442.526         442.526
  172         151.377         151.377         357.070         357.070         442.660         442.660
  173         149.382         149.382         358.569         358.569         442.793         442.793
  174         147.382         147.382         360.061         360.061         442.924         442.924
  175         145.385         145.385         361.540         361.540         443.051         443.051
  176         143.398         143.398         363.001         363.001         443.174         443.174
  177         141.427         141.427         364.439         364.439         443.293         443.293
  178         139.480         139.480         365.850         365.850         443.406         443.406
  179         137.562         137.562         367.229         367.229         443.515         443.515
  180         135.683         135.683         368.571         368.571         443.617         443.617
  181         133.846         133.846         369.873         369.873         443.713         443.713
  182         132.061         132.061         371.130         371.130         443.803         443.803
  183         130.333         130.333         372.338         372.338         443.886         443.886
  184         128.668         128.668         373.493         373.493         443.963         443.963
  185         127.074         127.074         374.592         374.592         444.033         444.033
  186         125.556         125.556         375.632         375.632         444.097         444.097
  187         124.122         124.122         376.609         376.609         444.154         444.154
  188         122.776         122.776         377.520         377.520         444.205         444.205
  189         121.525         121.525         378.362         378.362         444.250         444.250
  190         120.374         120.374         379.133         379.133         444.289         444.289
  191         119.329         119.329         379.830         379.830         444.323         444.323
  192         118.395         118.395         380.450         380.450         444.352         444.352
  193         117.575         117.575         380.992         380.992         444.377         444.377
  194         116.875         116.875         381.454         381.454         444.396         444.396
  195         116.296         116.296         381.834         381.834         444.412         444.412
