# Phonon frequencies in cm-1
    1           0.000           0.000           0.000         449.824         449.824         449.824
    2           2.901           2.901           4.891         449.819         449.819         449.824
    3           5.800           5.800           9.781         449.803         449.803         449.824
    4           8.696           8.696          14.669         449.777         449.777         449.823
    5          11.588          11.588          19.553         449.741         449.741         449.823
    6          14.474          14.474          24.434         449.694         449.694         449.823
    7          17.353          17.353          29.310         449.637         449.637         449.822
    8          20.223          20.223          34.179         449.570         449.570         449.822
    9          23.083          23.083          39.042         449.493         449.493         449.821
   10          25.931          25.931          43.896         449.406         449.406         449.821
   11          28.767          28.767          48.742         449.309         449.309         449.820
   12          31.587          31.587          53.577         449.203         449.203         449.820
   13          34.392          34.392          58.402         449.088         449.088         449.820
   14          37.179          37.179          63.215         448.963         448.963         449.820
   15          39.947          39.947          68.015         448.830         448.830         449.820
   16          42.695          42.695          72.802         448.688         448.688         449.820
   17          45.420          45.420          77.575         448.538         448.538         449.820
   18          48.122          48.122          82.333         448.380         448.380         449.821
   19          50.798          50.798          87.075         448.214         448.214         449.821
   20          53.447          53.447          91.801         448.041         448.041         449.821
   21          56.069          56.069          96.509         447.861         447.861         449.822
   22          58.660          58.660         101.200         447.675         447.675         449.822
   23          61.220          61.220         105.872         447.482         447.482         449.822
   24          63.747          63.747         110.525         447.284         447.284         449.821
   25          66.239          66.239         115.159         447.081         447.081         449.820
   26          68.695          68.695         119.772         446.873         446.873         449.818
   27          71.113          71.113         124.365         446.661         446.661         449.816
   28          73.491          73.491         128.937         446.445         446.445         449.811
   29          75.829          75.829         133.488         446.227         446.227         449.806
   30          78.124          78.124         138.016         446.005         446.005         449.798
   31          80.375          80.375         142.523         445.783         445.783         449.788
   32          82.580          82.580         147.006         445.559         445.559         449.776
   33          84.738          84.738         151.468         445.334         445.334         449.760
   34          86.848          86.848         155.905         445.109         445.109         449.741
   35          88.907          88.907         160.320         444.886         444.886         449.717
   36          90.915          90.915         164.711         444.663         444.663         449.689
   37          92.870          92.870         169.079         444.443         444.443         449.656
   38          94.770          94.770         173.422         444.226         444.226         449.616
   39          96.615          96.615         177.742         444.012         444.012         449.570
   40          98.402          98.402         182.037         443.802         443.802         449.517
   41         100.132         100.132         186.309         443.597         443.597         449.455
   42         101.802         101.802         190.556         443.398         443.398         449.385
   43         103.412         103.412         194.778         443.204         443.204         449.304
   44         104.960         104.960         198.977         443.018         443.018         449.213
   45         106.446         106.446         203.151         442.839         442.839         449.110
   46         107.869         107.869         207.300         442.668         442.668         448.994
   47         109.228         109.228         211.425         442.506         442.506         448.864
   48         110.522         110.522         215.526         442.353         442.353         448.720
   49         111.751         111.751         219.602         442.209         442.209         448.560
   50         112.915         112.915         223.653         442.076         442.076         448.383
   51         114.012         114.012         227.680         441.953         441.953         448.188
   52         115.044         115.044         231.683         441.842         441.842         447.974
   53         116.009         116.009         235.660         441.741         441.741         447.740
   54         116.908         116.908         239.614         441.653         441.653         447.484
   55         117.741         117.741         243.542         441.576         441.576         447.205
   56         118.509         118.509         247.446         441.511         441.511         446.902
   57         119.211         119.211         251.325         441.459         441.459         446.574
   58         119.848         119.848         255.179         441.419         441.419         446.220
   59         120.422         120.422         259.008         441.391         441.391         445.837
   60         120.933         120.933         262.811         441.375         441.375         445.426
   61         121.382         121.382         266.590         441.371         441.371         444.985
   62         121.771         121.771         270.342         441.380         441.380         444.512
   63         122.100         122.100         274.069         441.400         441.400         444.007
   64         122.372         122.372         277.770         441.431         441.431         443.468
   65         122.587         122.587         281.445         441.473         441.473         442.894
   66         122.748         122.748         285.093         441.527         441.527         442.284
   67         122.857         122.857         288.714         441.590         441.590         441.636
   68         122.916         122.916         292.308         440.950         441.663         441.663
   69         122.927         122.927         295.874         440.225         441.745         441.745
   70         122.892         122.892         299.412         439.459         441.836         441.836
   71         122.814         122.814         302.921         438.651         441.934         441.934
   72         122.696         122.696         306.402         437.801         442.040         442.040
   73         122.540         122.540         309.853         436.907         442.152         442.152
   74         122.350         122.350         313.274         435.968         442.270         442.270
   75         122.127         122.127         316.665         434.984         442.393         442.393
   76         121.876         121.876         320.024         433.954         442.521         442.521
   77         121.599         121.599         323.351         432.877         442.651         442.651
   78         121.299         121.299         326.646         431.753         442.784         442.784
   79         120.980         120.980         329.908         430.580         442.919         442.919
   80         120.645         120.645         333.137         429.357         443.055         443.055
   81         120.297         120.297         336.330         428.086         443.191         443.191
   82         119.940         119.940         339.489         426.764         443.327         443.327
   83         119.577         119.577         342.612         425.391         443.461         443.461
   84         119.210         119.210         345.698         423.968         443.592         443.592
   85         118.844         118.844         348.747         422.493         443.721         443.721
   86         118.481         118.481         351.758         420.966         443.846         443.846
   87         118.125         118.125         354.730         419.388         443.967         443.967
   88         117.779         117.779         357.662         417.757         444.082         444.082
   89         117.445         117.445         360.553         416.074         444.191         444.191
   90         117.127         117.127         363.404         414.339         444.295         444.295
   91         116.826         116.826         366.213         412.552         444.391         444.391
   92         116.547         116.547         368.978         410.712         444.479         444.479
   93         116.290         116.290         371.701         408.820         444.560         444.560
   94         116.058         116.058         374.379         406.876         444.632         444.632
   95         115.853         115.853         377.012         404.880         444.696         444.696
   96         115.676         115.676         379.600         402.833         444.750         444.750
   97         115.530         115.530         382.141         400.734         444.795         444.795
   98         115.415         115.415         384.636         398.584         444.830         444.830
   99         115.332         115.332         387.083         396.383         444.855         444.855
  100         115.282         115.282         389.481         394.132         444.871         444.871
  101         115.265         115.265         391.831         391.831         444.876         444.876
  102         115.334         115.334         391.782         391.782         444.876         444.876
  103         115.540         115.540         391.634         391.634         444.876         444.876
  104         115.883         115.883         391.388         391.388         444.875         444.875
  105         116.360         116.360         391.046         391.046         444.874         444.874
  106         116.969         116.969         390.608         390.608         444.872         444.872
  107         117.707         117.707         390.076         390.076         444.868         444.868
  108         118.570         118.570         389.453         389.453         444.861         444.861
  109         119.555         119.555         388.741         388.741         444.851         444.851
  110         120.655         120.655         387.943         387.943         444.837         444.837
  111         121.866         121.866         387.062         387.062         444.818         444.818
  112         123.182         123.182         386.100         386.100         444.793         444.793
  113         124.598         124.598         385.063         385.063         444.761         444.761
  114         126.106         126.106         383.952         383.952         444.722         444.722
  115         127.702         127.702         382.772         382.772         444.675         444.675
  116         129.378         129.378         381.528         381.528         444.620         444.620
  117         131.128         131.128         380.222         380.222         444.556         444.556
  118         132.945         132.945         378.859         378.859         444.484         444.484
  119         134.821         134.821         377.444         377.444         444.403         444.403
  120         136.751         136.751         375.981         375.981         444.312         444.312
  121         138.726         138.726         374.474         374.474         444.213         444.213
  122         140.741         140.741         372.929         372.929         444.106         444.106
  123         142.788         142.788         371.350         371.350         443.990         443.990
  124         144.860         144.860         369.742         369.742         443.867         443.867
  125         146.950         146.950         368.111         368.111         443.737         443.737
  126         149.050         149.050         366.462         366.462         443.601         443.601
  127         151.154         151.154         364.800         364.800         443.459         443.459
  128         153.254         153.254         363.132         363.132         443.313         443.313
  129         155.343         155.343         361.463         361.463         443.163         443.163
  130         157.412         157.412         359.799         359.799         443.011         443.011
  131         159.456         159.456         358.148         358.148         442.857         442.857
  132         161.465         161.465         356.516         356.516         442.703         442.703
  133         163.432         163.432         354.909         354.909         442.549         442.549
  134         165.349         165.349         353.335         353.335         442.397         442.397
  135         167.208         167.208         351.801         351.801         442.247         442.247
  136         169.001         169.001         350.316         350.316         442.102         442.102
  137         170.718         170.718         348.885         348.885         441.961         441.961
  138         172.353         172.353         347.519         347.519         441.825         441.825
  139         173.896         173.896         346.223         346.223         441.697         441.697
  140         175.340         175.340         345.007         345.007         441.577         441.577
  141         176.675         176.675         343.878         343.878         441.465         441.465
  142         177.895         177.895         342.843         342.843         441.362         441.362
  143         178.992         178.992         341.910         341.910         441.270         441.270
  144         179.958         179.958         341.086         341.086         441.189         441.189
  145         180.788         180.788         340.377         340.377         441.119         441.119
  146         181.475         181.475         339.789         339.789         441.061         441.061
  147         182.015         182.015         339.326         339.326         441.016         441.016
  148         182.404         182.404         338.993         338.993         440.983         440.983
  149         182.638         182.638         338.792         338.792         440.963         440.963
  150         182.716         182.716         338.724         338.724         440.957         440.957
  151         182.638         182.638         338.792         338.792         440.963         440.963
  152         182.404         182.404         338.993         338.993         440.983         440.983
  153         182.015         182.015         339.326         339.326         441.016         441.016
  154         181.475         181.475         339.789         339.789         441.061         441.061
  155         180.788         180.788         340.377         340.377         441.119         441.119
  156         179.958         179.958         341.086         341.086         441.189         441.189
  157         178.992         178.992         341.910         341.910         441.270         441.270
  158         177.895         177.895         342.843         342.843         441.362         441.362
  159         176.675         176.675         343.878         343.878         441.465         441.465
  160         175.340         175.340         345.007         345.007         441.577         441.577
  161         173.896         173.896         346.223         346.223         441.697         441.697
  162         172.353         172.353         347.519         347.519         441.825         441.825
  163         170.718         170.718         348.885         348.885         441.961         441.961
  164         169.001         169.001         350.316         350.316         442.102         442.102
  165         167.208         167.208         351.801         351.801         442.247         442.247
  166         165.349         165.349         353.335         353.335         442.397         442.397
  167         163.432         163.432         354.909         354.909         442.549         442.549
  168         161.465         161.465         356.516         356.516         442.703         442.703
  169         159.456         159.456         358.148         358.148         442.857         442.857
  170         157.412         157.412         359.799         359.799         443.011         443.011
  171         155.343         155.343         361.463         361.463         443.163         443.163
  172         153.254         153.254         363.132         363.132         443.313         443.313
  173         151.154         151.154         364.800         364.800         443.459         443.459
  174         149.050         149.050         366.462         366.462         443.601         443.601
  175         146.950         146.950         368.111         368.111         443.737         443.737
  176         144.860         144.860         369.742         369.742         443.867         443.867
  177         142.788         142.788         371.350         371.350         443.990         443.990
  178         140.741         140.741         372.929         372.929         444.106         444.106
  179         138.726         138.726         374.474         374.474         444.213         444.213
  180         136.751         136.751         375.981         375.981         444.312         444.312
  181         134.821         134.821         377.444         377.444         444.403         444.403
  182         132.945         132.945         378.859         378.859         444.484         444.484
  183         131.128         131.128         380.222         380.222         444.556         444.556
  184         129.378         129.378         381.528         381.528         444.620         444.620
  185         127.702         127.702         382.772         382.772         444.675         444.675
  186         126.106         126.106         383.952         383.952         444.722         444.722
  187         124.598         124.598         385.063         385.063         444.761         444.761
  188         123.182         123.182         386.100         386.100         444.793         444.793
  189         121.866         121.866         387.062         387.062         444.818         444.818
  190         120.655         120.655         387.943         387.943         444.837         444.837
  191         119.555         119.555         388.741         388.741         444.851         444.851
  192         118.570         118.570         389.453         389.453         444.861         444.861
  193         117.707         117.707         390.076         390.076         444.868         444.868
  194         116.969         116.969         390.608         390.608         444.872         444.872
  195         116.360         116.360         391.046         391.046         444.874         444.874
