# Phonon frequencies in cm-1
    1           0.000           0.000           0.000         449.824         449.824         449.824
    2           2.901           2.901           4.891         449.819         449.819         449.824
    3           5.800           5.800           9.781         449.803         449.803         449.824
    4           8.696           8.696          14.669         449.777         449.777         449.823
    5          11.588          11.588          19.553         449.741         449.741         449.823
    6          14.474          14.474          24.434         449.694         449.694         449.823
    7          17.353          17.353          29.310         449.637         449.637         449.822
    8          20.223          20.223          34.179         449.570         449.570         449.822
    9          23.083          23.083          39.042         449.493         449.493         449.821
   10          25.931          25.931          43.896         449.406         449.406         449.821
   11          28.767          28.767          48.742         449.309         449.309         449.820
   12          31.587          31.587          53.577         449.203         449.203         449.820
   13          34.392          34.392          58.402         449.088         449.088         449.820
   14          37.179          37.179          63.215         448.963         448.963         449.820
   15          39.947          39.947          68.015         448.830         448.830         449.820
   16          42.695          42.695          72.802         448.688         448.688         449.820
   17          45.420          45.420          77.575         448.538         448.538         449.820
   18          48.122          48.122          82.333         448.380         448.380         449.821
   19          50.798          50.798          87.075         448.214         448.214         449.821
   20          53.447          53.447          91.801         448.041         448.041         449.821
   21          56.069          56.069          96.509         447.861         447.861         449.822
   22          58.660          58.660         101.200         447.675         447.675         449.822
   23          61.220          61.220         105.872         447.482         447.482         449.822
   24          63.747          63.747         110.525         447.284         447.284         449.821
   25          66.239          66.239         115.159         447.081         447.081         449.820
   26          68.695          68.695         119.772         446.873         446.873         449.818
   27          71.113          71.113         124.365         446.661         446.661         449.816
   28          73.491          73.491         128.937         446.445         446.445         449.811
   29          75.829          75.829         133.488         446.227         446.227         449.806
   30          78.124          78.124         138.016         446.005         446.005         449.798
   31          80.375          80.375         142.523         445.783         445.783         449.788
   32          82.580          82.580         147.006         445.559         445.559         449.776
   33          84.738          84.738         151.468         445.334         445.334         449.760
   34          86.848          86.848         155.905         445.109         445.109         449.741
   35          88.907          88.907         160.320         444.886         444.886         449.717
   36          90.915          90.915         164.711         444.663         444.663         449.689
   37          92.870          92.870         169.079         444.443         444.443         449.656
   38          94.770          94.770         173.422         444.226         444.226         449.616
   39          96.615          96.615         177.742         444.012         444.012         449.570
   40          98.402          98.402         182.037         443.802         443.802         449.517
   41         100.132         100.132         186.309         443.597         443.597         449.455
   42         101.802         101.802         190.556         443.398         443.398         449.385
   43         103.412         103.412         194.778         443.204         443.204         449.304
   44         104.960         104.960         198.977         443.018         443.018         449.213
   45         106.446         106.446         203.151         442.839         442.839         449.110
   46         107.869         107.869         207.300         442.668         442.668         448.994
   47         109.228         109.228         211.425         442.506         442.506         448.864
   48         110.522         110.522         215.526         442.353         442.353         448.720
   49         111.751         111.751         219.602         442.209         442.209         448.560
   50         112.915         112.915         223.653         442.076         442.076         448.383
   51         114.012         114.012         227.680         441.953         441.953         448.188
   52         115.044         115.044         231.683         441.842         441.842         447.974
   53         116.009         116.009         235.660         441.741         441.741         447.740
   54         116.908         116.908         239.614         441.653         441.653         447.484
   55         117.741         117.741         243.542         441.576         441.576         447.205
   56         118.509         118.509         247.446         441.511         441.511         446.902
   57         119.211         119.211         251.325         441.459         441.459         446.574
   58         119.848         119.848         255.179         441.419         441.419         446.220
   59         120.422         120.422         259.008         441.391         441.391         445.837
   60         120.933         120.933         262.811         441.375         441.375         445.426
   61         121.382         121.382         266.590         441.371         441.371         444.985
   62         121.771         121.771         270.342         441.380         441.380         444.512
   63         122.100         122.100         274.069         441.400         441.400         444.007
   64         122.372         122.372         277.770         441.431         441.431         443.468
   65         122.587         122.587         281.445         441.473         441.473         442.894
   66         122.748         122.748         285.093         441.527         441.527         442.284
   67         122.857         122.857         288.714         441.590         441.590         441.636
   68         122.916         122.916         292.308         440.950         441.663         441.663
   69         122.927         122.927         295.874         440.225         441.745         441.745
   70         122.892         122.892         299.412         439.459         441.836         441.836
   71         122.814         122.814         302.921         438.651         441.934         441.934
   72         122.696         122.696         306.402         437.801         442.040         442.040
   73         122.540         122.540         309.853         436.907         442.152         442.152
   74         122.350         122.350         313.274         435.968         442.270         442.270
   75         122.127         122.127         316.665         434.984         442.393         442.393
   76         121.876         121.876         320.024         433.954         442.521         442.521
   77         121.599         121.599         323.351         432.877         442.651         442.651
   78         121.299         121.299         326.646         431.753         442.784         442.784
   79         120.980         120.980         329.908         430.580         442.919         442.919
   80         120.645         120.645         333.137         429.357         443.055         443.055
   81         120.297         120.297         336.330         428.086         443.191         443.191
   82         119.940         119.940         339.489         426.764         443.327         443.327
   83         119.577         119.577         342.612         425.391         443.461         443.461
   84         119.210         119.210         345.698         423.968         443.592         443.592
   85         118.844         118.844         348.747         422.493         443.721         443.721
   86         118.481         118.481         351.758         420.966         443.846         443.846
   87         118.125         118.125         354.730         419.388         443.967         443.967
   88         117.779         117.779         357.662         417.757         444.082         444.082
   89         117.445         117.445         360.553         416.074         444.191         444.191
   90         117.127         117.127         363.404         414.339         444.295         444.295
   91         116.826         116.826         366.213         412.552         444.391         444.391
   92         116.547         116.547         368.978         410.712         444.479         444.479
   93         116.290         116.290         371.701         408.820         444.560         444.560
   94         116.058         116.058         374.379         406.876         444.632         444.632
   95         115.853         115.853         377.012         404.880         444.696         444.696
   96         115.676         115.676         379.600         402.833         444.750         444.750
   97         115.530         115.530         382.141         400.734         444.795         444.795
   98         115.415         115.415         384.636         398.584         444.830         444.830
   99         115.332         115.332         387.083         396.383         444.855         444.855
  100         115.282         115.282         389.481         394.132         444.871         444.871
  101         115.265         115.265         391.831         391.831         444.876         444.876
  102         115.331         115.331         391.784         391.784         444.876         444.876
  103         115.529         115.529         391.642         391.642         444.876         444.876
  104         115.859         115.859         391.406         391.406         444.875         444.875
  105         116.317         116.317         391.077         391.077         444.874         444.874
  106         116.902         116.902         390.656         390.656         444.872         444.872
  107         117.612         117.612         390.145         390.145         444.869         444.869
  108         118.442         118.442         389.546         389.546         444.863         444.863
  109         119.389         119.389         388.861         388.861         444.853         444.853
  110         120.448         120.448         388.093         388.093         444.840         444.840
  111         121.615         121.615         387.244         387.244         444.822         444.822
  112         122.884         122.884         386.319         386.319         444.799         444.799
  113         124.249         124.249         385.319         385.319         444.769         444.769
  114         125.706         125.706         384.248         384.248         444.733         444.733
  115         127.247         127.247         383.109         383.109         444.689         444.689
  116         128.867         128.867         381.908         381.908         444.638         444.638
  117         130.560         130.560         380.646         380.646         444.578         444.578
  118         132.320         132.320         379.328         379.328         444.510         444.510
  119         134.139         134.139         377.959         377.959         444.433         444.433
  120         136.012         136.012         376.542         376.542         444.348         444.348
  121         137.931         137.931         375.082         375.082         444.254         444.254
  122         139.891         139.891         373.582         373.582         444.152         444.152
  123         141.884         141.884         372.048         372.048         444.042         444.042
  124         143.904         143.904         370.485         370.485         443.924         443.924
  125         145.945         145.945         368.897         368.897         443.800         443.800
  126         147.999         147.999         367.288         367.288         443.670         443.670
  127         150.060         150.060         365.665         365.665         443.534         443.534
  128         152.121         152.121         364.033         364.033         443.393         443.393
  129         154.175         154.175         362.397         362.397         443.248         443.248
  130         156.215         156.215         360.763         360.763         443.100         443.100
  131         158.233         158.233         359.137         359.137         442.950         442.950
  132         160.224         160.224         357.525         357.525         442.799         442.799
  133         162.179         162.179         355.934         355.934         442.647         442.647
  134         164.090         164.090         354.370         354.370         442.497         442.497
  135         165.951         165.951         352.839         352.839         442.349         442.349
  136         167.753         167.753         351.350         351.350         442.203         442.203
  137         169.489         169.489         349.909         349.909         442.062         442.062
  138         171.152         171.152         348.524         348.524         441.925         441.925
  139         172.732         172.732         347.201         347.201         441.794         441.794
  140         174.223         174.223         345.948         345.948         441.670         441.670
  141         175.616         175.616         344.774         344.774         441.554         441.554
  142         176.904         176.904         343.684         343.684         441.446         441.446
  143         178.079         178.079         342.687         342.687         441.347         441.347
  144         179.135         179.135         341.788         341.788         441.258         441.258
  145         180.065         180.065         340.995         340.995         441.180         441.180
  146         180.863         180.863         340.313         340.313         441.113         441.113
  147         181.524         181.524         339.747         339.747         441.057         441.057
  148         182.043         182.043         339.303         339.303         441.013         441.013
  149         182.416         182.416         338.982         338.982         440.982         440.982
  150         182.641         182.641         338.789         338.789         440.963         440.963
  151         182.716         182.716         338.724         338.724         440.957         440.957
  152         182.641         182.641         338.789         338.789         440.963         440.963
  153         182.416         182.416         338.982         338.982         440.982         440.982
  154         182.043         182.043         339.303         339.303         441.013         441.013
  155         181.524         181.524         339.747         339.747         441.057         441.057
  156         180.863         180.863         340.313         340.313         441.113         441.113
  157         180.065         180.065         340.995         340.995         441.180         441.180
  158         179.135         179.135         341.788         341.788         441.258         441.258
  159         178.079         178.079         342.687         342.687         441.347         441.347
  160         176.904         176.904         343.684         343.684         441.446         441.446
  161         175.616         175.616         344.774         344.774         441.554         441.554
  162         174.223         174.223         345.948         345.948         441.670         441.670
  163         172.732         172.732         347.201         347.201         441.794         441.794
  164         171.152         171.152         348.524         348.524         441.925         441.925
  165         169.489         169.489         349.909         349.909         442.062         442.062
  166         167.753         167.753         351.350         351.350         442.203         442.203
  167         165.951         165.951         352.839         352.839         442.349         442.349
  168         164.090         164.090         354.370         354.370         442.497         442.497
  169         162.179         162.179         355.934         355.934         442.647         442.647
  170         160.224         160.224         357.525         357.525         442.799         442.799
  171         158.233         158.233         359.137         359.137         442.950         442.950
  172         156.215         156.215         360.763         360.763         443.100         443.100
  173         154.175         154.175         362.397         362.397         443.248         443.248
  174         152.121         152.121         364.033         364.033         443.393         443.393
  175         150.060         150.060         365.665         365.665         443.534         443.534
  176         147.999         147.999         367.288         367.288         443.670         443.670
  177         145.945         145.945         368.897         368.897         443.800         443.800
  178         143.904         143.904         370.485         370.485         443.924         443.924
  179         141.884         141.884         372.048         372.048         444.042         444.042
  180         139.891         139.891         373.582         373.582         444.152         444.152
  181         137.931         137.931         375.082         375.082         444.254         444.254
  182         136.012         136.012         376.542         376.542         444.348         444.348
  183         134.139         134.139         377.959         377.959         444.433         444.433
  184         132.320         132.320         379.328         379.328         444.510         444.510
  185         130.560         130.560         380.646         380.646         444.578         444.578
  186         128.867         128.867         381.908         381.908         444.638         444.638
  187         127.247         127.247         383.109         383.109         444.689         444.689
  188         125.706         125.706         384.248         384.248         444.733         444.733
  189         124.249         124.249         385.319         385.319         444.769         444.769
  190         122.884         122.884         386.319         386.319         444.799         444.799
  191         121.615         121.615         387.244         387.244         444.822         444.822
  192         120.448         120.448         388.093         388.093         444.840         444.840
  193         119.389         119.389         388.861         388.861         444.853         444.853
  194         118.442         118.442         389.546         389.546         444.863         444.863
  195         117.612         117.612         390.145         390.145         444.869         444.869
