# Phonon frequencies in cm-1
    1           0.000           0.000           0.000          53.599          53.599          53.599
    2           0.650           0.650           1.268          53.597          53.597          53.610
    3           1.300           1.300           2.536          53.589          53.589          53.642
    4           1.950           1.950           3.803          53.577          53.577          53.695
    5           2.599           2.599           5.069          53.559          53.559          53.769
    6           3.248           3.248           6.334          53.537          53.537          53.865
    7           3.895           3.895           7.598          53.509          53.509          53.981
    8           4.541           4.541           8.859          53.477          53.477          54.118
    9           5.186           5.186          10.119          53.440          53.440          54.275
   10           5.828           5.828          11.376          53.398          53.398          54.452
   11           6.470           6.470          12.631          53.352          53.352          54.648
   12           7.109           7.109          13.882          53.300          53.300          54.863
   13           7.746           7.746          15.130          53.244          53.244          55.097
   14           8.380           8.380          16.375          53.183          53.183          55.350
   15           9.012           9.012          17.615          53.118          53.118          55.620
   16           9.641           9.641          18.852          53.049          53.049          55.907
   17          10.267          10.267          20.084          52.975          52.975          56.211
   18          10.890          10.890          21.311          52.897          52.897          56.530
   19          11.509          11.509          22.533          52.814          52.814          56.865
   20          12.125          12.125          23.750          52.728          52.728          57.215
   21          12.737          12.737          24.961          52.637          52.637          57.579
   22          13.346          13.346          26.166          52.543          52.543          57.957
   23          13.950          13.950          27.365          52.444          52.444          58.347
   24          14.550          14.550          28.557          52.342          52.342          58.750
   25          15.145          15.145          29.743          52.237          52.237          59.164
   26          15.736          15.736          30.922          52.128          52.128          59.589
   27          16.322          16.322          32.093          52.016          52.016          60.024
   28          16.903          16.903          33.257          51.900          51.900          60.469
   29          17.479          17.479          34.413          51.781          51.781          60.923
   30          18.050          18.050          35.560          51.660          51.660          61.384
   31          18.616          18.616          36.700          51.535          51.535          61.854
   32          19.176          19.176          37.830          51.408          51.408          62.330
   33          19.730          19.730          38.952          51.279          51.279          62.812
   34          20.279          20.279          40.065          51.146          51.146          63.300
   35          20.822          20.822          41.168          51.012          51.012          63.793
   36          21.359          21.359          42.261          50.875          50.875          64.290
   37          21.889          21.889          43.345          50.737          50.737          64.791
   38          22.414          22.414          44.418          50.597          50.597          65.295
   39          22.931          22.931          45.481          50.454          50.454          65.801
   40          23.443          23.443          46.534          50.311          50.311          66.309
   41          23.948          23.948          47.575          50.166          50.166          66.818
   42          24.446          24.446          48.605          50.019          50.019          67.328
   43          24.938          24.938          49.624          49.871          49.871          67.839
   44          25.422          25.422          49.723          49.723          50.632          68.349
   45          25.900          25.900          49.573          49.573          51.627          68.857
   46          26.371          26.371          49.423          49.423          52.611          69.365
   47          26.834          26.834          49.272          49.272          53.583          69.870
   48          27.291          27.291          49.121          49.121          54.542          70.373
   49          27.740          27.740          48.969          48.969          55.488          70.873
   50          28.182          28.182          48.817          48.817          56.421          71.369
   51          28.617          28.617          48.665          48.665          57.342          71.862
   52          29.045          29.045          48.513          48.513          58.249          72.350
   53          29.465          29.465          48.361          48.361          59.143          72.833
   54          29.878          29.878          48.209          48.209          60.024          73.311
   55          30.283          30.283          48.058          48.058          60.890          73.783
   56          30.681          30.681          47.907          47.907          61.743          74.249
   57          31.072          31.072          47.757          47.757          62.581          74.708
   58          31.455          31.455          47.607          47.607          63.405          75.160
   59          31.831          31.831          47.458          47.458          64.215          75.605
   60          32.199          32.199          47.309          47.309          65.010          76.042
   61          32.560          32.560          47.162          47.162          65.791          76.472
   62          32.914          32.914          47.015          47.015          66.556          76.892
   63          33.260          33.260          46.869          46.869          67.307          77.304
   64          33.599          33.599          46.725          46.725          68.042          77.707
   65          33.931          33.931          46.581          46.581          68.762          78.100
   66          34.255          34.255          46.439          46.439          69.466          78.483
   67          34.572          34.572          46.297          46.297          70.155          78.856
   68          34.883          34.883          46.157          46.157          70.828          79.219
   69          35.186          35.186          46.018          46.018          71.486          79.571
   70          35.482          35.482          45.880          45.880          72.127          79.912
   71          35.771          35.771          45.743          45.743          72.752          80.242
   72          36.054          36.054          45.607          45.607          73.362          80.560
   73          36.330          36.330          45.473          45.473          73.955          80.866
   74          36.599          36.599          45.339          45.339          74.532          81.160
   75          36.862          36.862          45.207          45.207          75.092          81.441
   76          37.118          37.118          45.075          45.075          75.636          81.710
   77          37.368          37.368          44.945          44.945          76.163          81.967
   78          37.612          37.612          44.815          44.815          76.674          82.210
   79          37.850          37.850          44.686          44.686          77.168          82.439
   80          38.081          38.081          44.558          44.558          77.645          82.655
   81          38.307          38.307          44.431          44.431          78.106          82.858
   82          38.528          38.528          44.304          44.304          78.550          83.046
   83          38.742          38.742          44.178          44.178          78.977          83.221
   84          38.952          38.952          44.052          44.052          79.386          83.381
   85          39.156          39.156          43.926          43.926          79.779          83.526
   86          39.355          39.355          43.801          43.801          80.155          83.657
   87          39.549          39.549          43.675          43.675          80.515          83.773
   88          39.738          39.738          43.550          43.550          80.857          83.874
   89          39.923          39.923          43.424          43.424          81.182          83.960
   90          40.104          40.104          43.298          43.298          81.490          84.031
   91          40.280          40.280          43.171          43.171          81.781          84.086
   92          40.451          40.451          43.044          43.044          82.055          84.125
   93          40.619          40.619          42.916          42.916          82.312          84.149
   94          40.784          40.784          42.787          42.787          82.552          84.157
   95          40.944          40.944          42.657          42.657          82.775          84.149
   96          41.101          41.101          42.525          42.525          82.981          84.125
   97          41.255          41.255          42.392          42.392          83.170          84.085
   98          41.406          41.406          42.258          42.258          83.343          84.028
   99          41.554          41.554          42.121          42.121          83.499          83.955
  100          41.700          41.700          41.983          41.983          83.638          83.866
  101          41.843          41.843          41.843          41.843          83.760          83.760
  102          41.838          41.838          41.842          41.842          83.759          83.759
  103          41.826          41.826          41.841          41.841          83.757          83.757
  104          41.804          41.804          41.839          41.839          83.752          83.752
  105          41.775          41.775          41.836          41.836          83.745          83.745
  106          41.737          41.737          41.832          41.832          83.737          83.737
  107          41.690          41.690          41.827          41.827          83.727          83.727
  108          41.635          41.635          41.821          41.821          83.715          83.715
  109          41.572          41.572          41.814          41.814          83.702          83.702
  110          41.500          41.500          41.806          41.806          83.687          83.687
  111          41.420          41.420          41.797          41.797          83.670          83.670
  112          41.331          41.331          41.786          41.786          83.652          83.652
  113          41.234          41.234          41.775          41.775          83.632          83.632
  114          41.129          41.129          41.762          41.762          83.610          83.610
  115          41.016          41.016          41.748          41.748          83.587          83.587
  116          40.895          40.895          41.733          41.733          83.563          83.563
  117          40.765          40.765          41.716          41.716          83.537          83.537
  118          40.628          40.628          41.697          41.697          83.510          83.510
  119          40.482          40.482          41.677          41.677          83.482          83.482
  120          40.328          40.328          41.656          41.656          83.453          83.453
  121          40.167          40.167          41.632          41.632          83.423          83.423
  122          39.998          39.998          41.607          41.607          83.392          83.392
  123          39.821          39.821          41.579          41.579          83.360          83.360
  124          39.636          39.636          41.549          41.549          83.327          83.327
  125          39.443          39.443          41.518          41.518          83.294          83.294
  126          39.244          39.244          41.484          41.484          83.260          83.260
  127          39.036          39.036          41.447          41.447          83.226          83.226
  128          38.821          38.821          41.408          41.408          83.191          83.191
  129          38.599          38.599          41.367          41.367          83.156          83.156
  130          38.370          38.370          41.323          41.323          83.121          83.121
  131          38.134          38.134          41.276          41.276          83.086          83.086
  132          37.891          37.891          41.226          41.226          83.051          83.051
  133          37.641          37.641          41.173          41.173          83.016          83.016
  134          37.384          37.384          41.117          41.117          82.981          82.981
  135          37.120          37.120          41.058          41.058          82.946          82.946
  136          36.850          36.850          40.996          40.996          82.912          82.912
  137          36.574          36.574          40.931          40.931          82.879          82.879
  138          36.291          36.291          40.862          40.862          82.846          82.846
  139          36.002          36.002          40.789          40.789          82.814          82.814
  140          35.707          35.707          40.714          40.714          82.782          82.782
  141          35.407          35.407          40.634          40.634          82.752          82.752
  142          35.100          35.100          40.551          40.551          82.722          82.722
  143          34.788          34.788          40.464          40.464          82.694          82.694
  144          34.471          34.471          40.374          40.374          82.666          82.666
  145          34.148          34.148          40.280          40.280          82.640          82.640
  146          33.821          33.821          40.182          40.182          82.615          82.615
  147          33.488          33.488          40.080          40.080          82.592          82.592
  148          33.151          33.151          39.975          39.975          82.569          82.569
  149          32.809          32.809          39.866          39.866          82.549          82.549
  150          32.464          32.464          39.754          39.754          82.529          82.529
  151          32.114          32.114          39.638          39.638          82.511          82.511
  152          31.760          31.760          39.518          39.518          82.495          82.495
  153          31.402          31.402          39.395          39.395          82.480          82.480
  154          31.041          31.041          39.269          39.269          82.467          82.467
  155          30.677          30.677          39.139          39.139          82.455          82.455
  156          30.310          30.310          39.006          39.006          82.445          82.445
  157          29.941          29.941          38.870          38.870          82.437          82.437
  158          29.569          29.569          38.732          38.732          82.430          82.430
  159          29.195          29.195          38.590          38.590          82.424          82.424
  160          28.819          28.819          38.446          38.446          82.420          82.420
  161          28.442          28.442          38.300          38.300          82.418          82.418
  162          28.063          28.063          38.152          38.152          82.417          82.417
  163          27.684          27.684          38.002          38.002          82.417          82.417
  164          27.304          27.304          37.850          37.850          82.419          82.419
  165          26.924          26.924          37.696          37.696          82.422          82.422
  166          26.545          26.545          37.542          37.542          82.426          82.426
  167          26.166          26.166          37.386          37.386          82.432          82.432
  168          25.788          25.788          37.230          37.230          82.438          82.438
  169          25.411          25.411          37.074          37.074          82.446          82.446
  170          25.037          25.037          36.918          36.918          82.454          82.454
  171          24.665          24.665          36.761          36.761          82.464          82.464
  172          24.296          24.296          36.606          36.606          82.474          82.474
  173          23.930          23.930          36.451          36.451          82.485          82.485
  174          23.568          23.568          36.297          36.297          82.497          82.497
  175          23.211          23.211          36.146          36.146          82.509          82.509
  176          22.858          22.858          35.996          35.996          82.521          82.521
  177          22.512          22.512          35.848          35.848          82.534          82.534
  178          22.171          22.171          35.703          35.703          82.548          82.548
  179          21.838          21.838          35.561          35.561          82.561          82.561
  180          21.512          21.512          35.422          35.422          82.575          82.575
  181          21.194          21.194          35.287          35.287          82.588          82.588
  182          20.885          20.885          35.155          35.155          82.602          82.602
  183          20.586          20.586          35.029          35.029          82.615          82.615
  184          20.297          20.297          34.906          34.906          82.629          82.629
  185          20.019          20.019          34.789          34.789          82.642          82.642
  186          19.753          19.753          34.677          34.677          82.654          82.654
  187          19.500          19.500          34.571          34.571          82.666          82.666
  188          19.260          19.260          34.471          34.471          82.678          82.678
  189          19.034          19.034          34.377          34.377          82.689          82.689
  190          18.823          18.823          34.289          34.289          82.699          82.699
  191          18.627          18.627          34.208          34.208          82.709          82.709
  192          18.448          18.448          34.134          34.134          82.718          82.718
  193          18.286          18.286          34.068          34.068          82.726          82.726
  194          18.141          18.141          34.008          34.008          82.733          82.733
  195          18.014          18.014          33.956          33.956          82.740          82.740
