# Phonon frequencies in cm-1
    1           0.000           0.000           0.000
    2           0.778           0.812           2.704
    3           1.556           1.624           5.407
    4           2.333           2.434           8.108
    5           3.109           3.242          10.806
    6           3.883           4.047          13.502
    7           4.655           4.850          16.192
    8           5.424           5.648          18.878
    9           6.190           6.441          21.557
   10           6.954           7.230          24.230
   11           7.713           8.012          26.894
   12           8.468           8.788          29.550
   13           9.219           9.557          32.197
   14           9.964          10.318          34.833
   15          10.705          11.071          37.458
   16          11.439          11.815          40.071
   17          12.168          12.549          42.672
   18          12.890          13.274          45.259
   19          13.605          13.987          47.831
   20          14.313          14.690          50.389
   21          15.014          15.380          52.930
   22          15.707          16.058          55.455
   23          16.391          16.724          57.963
   24          17.067          17.376          60.452
   25          17.735          18.015          62.922
   26          18.393          18.639          65.373
   27          19.042          19.249          67.804
   28          19.682          19.843          70.214
   29          20.311          20.422          72.602
   30          20.930          20.985          74.968
   31          21.532          21.539          77.311
   32          22.063          22.138          79.631
   33          22.576          22.726          81.926
   34          23.072          23.302          84.197
   35          23.550          23.868          86.443
   36          24.011          24.422          88.662
   37          24.454          24.965          90.856
   38          24.878          25.496          93.022
   39          25.284          26.016          95.161
   40          25.671          26.523          97.272
   41          26.040          27.019          99.355
   42          26.389          27.502         101.409
   43          26.720          27.973         103.433
   44          27.031          28.433         105.428
   45          27.323          28.880         107.393
   46          27.596          29.314         109.327
   47          27.850          29.737         111.231
   48          28.085          30.147         113.103
   49          28.301          30.545         114.944
   50          28.498          30.931         116.752
   51          28.676          31.304         118.529
   52          28.835          31.666         120.273
   53          28.976          32.015         121.984
   54          29.098          32.352         123.662
   55          29.202          32.678         125.306
   56          29.289          32.992         126.918
   57          29.358          33.294         128.495
   58          29.410          33.585         130.038
   59          29.445          33.864         131.548
   60          29.464          34.132         133.022
   61          29.466          34.389         134.463
   62          29.453          34.635         135.868
   63          29.425          34.871         137.239
   64          29.383          35.096         138.575
   65          29.326          35.311         139.876
   66          29.257          35.516         141.142
   67          29.174          35.711         142.372
   68          29.079          35.897         143.567
   69          28.973          36.073         144.727
   70          28.857          36.240         145.851
   71          28.730          36.399         146.939
   72          28.594          36.548         147.992
   73          28.450          36.690         149.010
   74          28.298          36.823         149.991
   75          28.139          36.949         150.937
   76          27.975          37.067         151.847
   77          27.806          37.178         152.721
   78          27.633          37.282         153.560
   79          27.458          37.379         154.363
   80          27.280          37.470         155.130
   81          27.101          37.555         155.861
   82          26.923          37.633         156.556
   83          26.745          37.706         157.216
   84          26.570          37.774         157.840
   85          26.397          37.836         158.428
   86          26.229          37.893         158.980
   87          26.067          37.945         159.497
   88          25.910          37.993         159.978
   89          25.760          38.037         160.423
   90          25.619          38.076         160.833
   91          25.486          38.111         161.206
   92          25.363          38.143         161.545
   93          25.251          38.170         161.847
   94          25.150          38.194         162.114
   95          25.062          38.215         162.345
   96          24.985          38.232         162.541
   97          24.922          38.246         162.701
   98          24.873          38.257         162.826
   99          24.837          38.265         162.915
  100          24.816          38.269         162.968
  101          24.809          38.271         162.986
  102          24.828          38.320         162.977
  103          24.885          38.466         162.950
  104          24.979          38.709         162.904
  105          25.111          39.046         162.841
  106          25.279          39.474         162.760
  107          25.481          39.989         162.660
  108          25.717          40.588         162.543
  109          25.986          41.266         162.407
  110          26.284          42.018         162.254
  111          26.611          42.838         162.083
  112          26.965          43.723         161.895
  113          27.344          44.666         161.688
  114          27.746          45.663         161.464
  115          28.168          46.708         161.223
  116          28.610          47.798         160.964
  117          29.068          48.927         160.688
  118          29.542          50.091         160.395
  119          30.029          51.286         160.085
  120          30.527          52.508         159.758
  121          31.035          53.753         159.414
  122          31.552          55.019         159.054
  123          32.074          56.302         158.678
  124          32.602          57.599         158.285
  125          33.133          58.906         157.876
  126          33.666          60.223         157.452
  127          34.200          61.546         157.012
  128          34.733          62.873         156.557
  129          35.265          64.201         156.087
  130          35.794          65.530         155.601
  131          36.319          66.857         155.102
  132          36.840          68.181         154.588
  133          37.354          69.500         154.060
  134          37.863          70.812         153.519
  135          38.364          72.117         152.964
  136          38.857          73.412         152.396
  137          39.341          74.697         151.815
  138          39.816          75.971         151.223
  139          40.281          77.233         150.618
  140          40.736          78.481         150.002
  141          41.180          79.716         149.375
  142          41.612          80.935         148.737
  143          42.033          82.139         148.090
  144          42.442          83.326         147.432
  145          42.838          84.496         146.765
  146          43.222          85.649         146.090
  147          43.592          86.783         145.406
  148          43.950          87.898         144.715
  149          44.294          88.995         144.017
  150          44.626          90.072         143.312
  151          44.943          91.129         142.601
  152          45.248          92.165         141.885
  153          45.538          93.181         141.164
  154          45.816          94.176         140.440
  155          46.080          95.150         139.712
  156          46.331          96.103         138.981
  157          46.568          97.033         138.249
  158          46.792          97.942         137.515
  159          47.004          98.830         136.781
  160          47.203          99.695         136.047
  161          47.389         100.538         135.314
  162          47.564         101.359         134.583
  163          47.726         102.157         133.855
  164          47.876         102.934         133.131
  165          48.016         103.688         132.410
  166          48.144         104.420         131.695
  167          48.262         105.129         130.986
  168          48.369         105.816         130.284
  169          48.466         106.482         129.590
  170          48.554         107.125         128.904
  171          48.633         107.746         128.228
  172          48.703         108.344         127.563
  173          48.765         108.922         126.909
  174          48.820         109.477         126.268
  175          48.867         110.011         125.640
  176          48.907         110.523         125.026
  177          48.940         111.013         124.427
  178          48.968         111.483         123.844
  179          48.991         111.931         123.278
  180          49.008         112.358         122.730
  181          49.021         112.764         122.201
  182          49.030         113.149         121.691
  183          49.035         113.514         121.202
  184          49.037         113.858         120.734
  185          49.036         114.181         120.288
  186          49.033         114.484         119.865
  187          49.029         114.768         119.465
  188          49.022         115.031         119.089
  189          49.015         115.274         118.739
  190          49.007         115.497         118.414
  191          48.998         115.700         118.115
  192          48.989         115.884         117.843
  193          48.980         116.048         117.598
  194          48.972         116.193         117.381
  195          48.964         116.318         117.192
  196          48.958         116.424         117.031
  197          48.952         116.511         116.900
  198          48.947         116.578         116.797
  199          48.944         116.626         116.723
  200          48.942         116.655         116.679
  201          48.941         116.664         116.664
  202          48.942         116.659         116.675
  203          48.944         116.641         116.708
  204          48.947         116.613         116.762
  205          48.952         116.572         116.838
  206          48.958         116.521         116.935
  207          48.966         116.458         117.053
  208          48.974         116.383         117.191
  209          48.984         116.297         117.349
  210          48.995         116.199         117.527
  211          49.007         116.090         117.724
  212          49.019         115.969         117.938
  213          49.032         115.837         118.170
  214          49.046         115.693         118.419
  215          49.061         115.537         118.683
  216          49.075         115.370         118.962
  217          49.090         115.191         119.254
  218          49.104         115.000         119.560
  219          49.119         114.797         119.877
  220          49.133         114.583         120.206
  221          49.146         114.357         120.543
  222          49.159         114.119         120.890
  223          49.171         113.869         121.243
  224          49.181         113.607         121.603
  225          49.191         113.333         121.967
  226          49.198         113.047         122.335
  227          49.204         112.749         122.706
  228          49.207         112.439         123.078
  229          49.209         112.117         123.449
  230          49.207         111.782         123.820
  231          49.203         111.436         124.187
  232          49.196         111.077         124.551
  233          49.186         110.705         124.910
  234          49.172         110.322         125.262
  235          49.155         109.926         125.607
  236          49.133         109.517         125.943
  237          49.107         109.096         126.269
  238          49.077         108.663         126.584
  239          49.042         108.216         126.887
  240          49.002         107.758         127.175
  241          48.957         107.286         127.449
  242          48.907         106.802         127.708
  243          48.850         106.305         127.949
  244          48.788         105.795         128.172
  245          48.720         105.273         128.376
  246          48.645         104.737         128.560
  247          48.564         104.189         128.723
  248          48.476         103.628         128.863
  249          48.381         103.054         128.981
  250          48.279         102.467         129.074
  251          48.169         101.866         129.142
  252          48.052         101.253         129.185
  253          47.927         100.627         129.201
  254          47.794          99.988         129.190
  255          47.652          99.335         129.150
  256          47.503          98.670         129.081
  257          47.344          97.991         128.982
  258          47.177          97.299         128.853
  259          47.001          96.594         128.693
  260          46.816          95.876         128.501
  261          46.622          95.145         128.276
  262          46.419          94.401         128.019
  263          46.206          93.644         127.728
  264          45.983          92.873         127.403
  265          45.751          92.089         127.044
  266          45.509          91.293         126.649
  267          45.256          90.483         126.220
  268          44.994          89.660         125.754
  269          44.722          88.824         125.252
  270          44.439          87.975         124.714
  271          44.147          87.114         124.139
  272          43.843          86.239         123.527
  273          43.530          85.351         122.877
  274          43.205          84.451         122.190
  275          42.871          83.538         121.465
  276          42.525          82.612         120.702
  277          42.169          81.674         119.901
  278          41.803          80.723         119.062
  279          41.425          79.759         118.185
  280          41.037          78.783         117.270
  281          40.638          77.795         116.316
  282          40.229          76.795         115.324
  283          39.809          75.782         114.294
  284          39.378          74.757         113.225
  285          38.937          73.720         112.119
  286          38.484          72.672         110.974
  287          38.022          71.611         109.792
  288          37.549          70.539         108.572
  289          37.065          69.455         107.315
  290          36.571          68.360         106.020
  291          36.066          67.254         104.688
  292          35.551          66.136         103.320
  293          35.026          65.007         101.915
  294          34.491          63.868         100.474
  295          33.946          62.717          98.997
  296          33.391          61.556          97.485
  297          32.826          60.385          95.938
  298          32.252          59.203          94.356
  299          31.667          58.011          92.740
  300          31.074          56.809          91.090
  301          30.471          55.597          89.407
  302          29.858          54.376          87.691
  303          29.237          53.145          85.943
  304          28.607          51.904          84.163
  305          27.968          50.655          82.353
  306          27.320          49.397          80.511
  307          26.664          48.129          78.640
  308          26.000          46.854          76.739
  309          25.328          45.570          74.809
  310          24.647          44.278          72.851
  311          23.959          42.977          70.866
  312          23.264          41.670          68.855
  313          22.561          40.354          66.817
  314          21.851          39.032          64.753
  315          21.134          37.702          62.666
  316          20.410          36.365          60.554
  317          19.680          35.022          58.419
  318          18.944          33.672          56.262
  319          18.201          32.316          54.084
  320          17.453          30.955          51.884
  321          16.699          29.587          49.665
  322          15.939          28.214          47.427
  323          15.175          26.836          45.170
  324          14.405          25.453          42.896
  325          13.631          24.065          40.605
  326          12.853          22.673          38.299
  327          12.070          21.277          35.978
  328          11.283          19.876          33.643
  329          10.493          18.472          31.295
  330           9.699          17.065          28.935
  331           8.902          15.654          26.563
  332           8.102          14.240          24.181
  333           7.299          12.824          21.790
  334           6.494          11.405          19.390
  335           5.687           9.984          16.983
  336           4.878           8.561          14.569
  337           4.068           7.137          12.150
  338           3.256           5.711           9.726
  339           2.443           4.284           7.297
  340           1.629           2.857           4.867
  341           0.815           1.428           2.434
  342           0.000           0.000           0.000
  343           0.814           0.814           2.671
  344           1.628           1.628           5.341
  345           2.441           2.441           8.009
  346           3.255           3.255          10.675
  347           4.068           4.068          13.336
  348           4.880           4.880          15.993
  349           5.693           5.693          18.645
  350           6.505           6.505          21.290
  351           7.316           7.316          23.927
  352           8.127           8.127          26.556
  353           8.937           8.937          29.175
  354           9.747           9.747          31.785
  355          10.555          10.555          34.383
  356          11.363          11.363          36.969
  357          12.170          12.170          39.543
  358          12.977          12.977          42.102
  359          13.782          13.782          44.647
  360          14.586          14.586          47.176
  361          15.389          15.389          49.689
  362          16.192          16.192          52.184
  363          16.993          16.993          54.661
  364          17.793          17.793          57.119
  365          18.592          18.592          59.557
  366          19.390          19.390          61.974
  367          20.187          20.187          64.370
  368          20.982          20.982          66.743
  369          21.777          21.777          69.093
