# Phonon frequencies in cm-1
    1           0.000           0.000           0.000         183.477         183.477         183.477         419.252         419.252         419.252
    2           1.601           1.601           3.382         183.508         183.508         419.209         419.266         419.266         518.877
    3           3.202           3.202           6.763         183.601         183.601         419.082         419.308         419.308         518.879
    4           4.801           4.801          10.140         183.756         183.756         418.871         419.378         419.378         518.882
    5           6.399           6.399          13.514         183.971         183.971         418.575         419.476         419.476         518.886
    6           7.995           7.995          16.881         184.247         184.247         418.194         419.602         419.602         518.891
    7           9.588           9.588          20.241         184.582         184.582         417.729         419.755         419.755         518.899
    8          11.178          11.178          23.592         184.974         184.974         417.180         419.934         419.934         518.908
    9          12.764          12.764          26.933         185.423         185.423         416.548         420.140         420.140         518.919
   10          14.346          14.346          30.262         185.926         185.926         415.832         420.371         420.371         518.932
   11          15.923          15.923          33.577         186.482         186.482         415.033         420.627         420.627         518.949
   12          17.495          17.495          36.878         187.088         187.088         414.151         420.908         420.908         518.968
   13          19.062          19.062          40.164         187.742         187.742         413.187         421.212         421.212         518.991
   14          20.622          20.622          43.431         188.441         188.441         412.141         421.539         421.539         519.019
   15          22.176          22.176          46.681         189.184         189.184         411.013         421.887         421.887         519.050
   16          23.723          23.723          49.909         189.967         189.967         409.805         422.256         422.256         519.087
   17          25.263          25.263          53.117         190.788         190.788         408.516         422.645         422.645         519.129
   18          26.795          26.795          56.302         191.643         191.643         407.147         423.053         423.053         519.177
   19          28.319          28.319          59.463         192.530         192.530         405.700         423.478         423.478         519.232
   20          29.834          29.834          62.599         193.446         193.446         404.174         423.920         423.920         519.294
   21          31.341          31.341          65.708         194.387         194.387         402.570         424.377         424.377         519.364
   22          32.838          32.838          68.790         195.350         195.350         400.890         424.849         424.849         519.443
   23          34.327          34.327          71.843         196.333         196.333         399.133         425.333         425.333         519.530
   24          35.805          35.805          74.867         197.332         197.332         397.301         425.829         425.829         519.627
   25          37.274          37.274          77.860         198.344         198.344         395.395         426.335         426.335         519.733
   26          38.733          38.733          80.820         199.366         199.366         393.415         426.850         426.850         519.851
   27          40.181          40.181          83.748         200.395         200.395         391.363         427.374         427.374         519.980
   28          41.620          41.620          86.642         201.428         201.428         389.239         427.904         427.904         520.121
   29          43.047          43.047          89.502         202.461         202.461         387.045         428.439         428.439         520.274
   30          44.464          44.464          92.326         203.493         203.493         384.781         428.978         428.978         520.440
   31          45.870          45.870          95.113         204.519         204.519         382.450         429.520         429.520         520.620
   32          47.266          47.266          97.864         205.538         205.538         380.051         430.064         430.064         520.813
   33          48.651          48.651         100.576         206.547         206.547         377.586         430.608         430.608         521.021
   34          50.024          50.024         103.250         207.542         207.542         375.057         431.151         431.151         521.243
   35          51.387          51.387         105.885         208.521         208.521         372.464         431.692         431.692         521.481
   36          52.740          52.740         108.481         209.483         209.483         369.809         432.230         432.230         521.734
   37          54.081          54.081         111.036         210.424         210.424         367.094         432.764         432.764         522.002
   38          55.412          55.412         113.550         211.343         211.343         364.320         433.292         433.292         522.286
   39          56.732          56.732         116.023         212.236         212.236         361.488         433.814         433.814         522.586
   40          58.042          58.042         118.455         213.103         213.103         358.600         434.329         434.329         522.903
   41          59.342          59.342         120.845         213.942         213.942         355.658         434.835         434.835         523.235
   42          60.631          60.631         123.193         214.749         214.749         352.663         435.332         435.332         523.584
   43          61.911          61.911         125.499         215.525         215.525         349.617         435.818         435.818         523.949
   44          63.181          63.181         127.762         216.267         216.267         346.521         436.294         436.294         524.330
   45          64.441          64.441         129.982         216.973         216.973         343.378         436.758         436.758         524.727
   46          65.692          65.692         132.160         217.644         217.644         340.189         437.210         437.210         525.139
   47          66.934          66.934         134.294         218.276         218.276         336.956         437.649         437.649         525.567
   48          68.166          68.166         136.386         218.870         218.870         333.682         438.074         438.074         526.009
   49          69.391          69.391         138.435         219.424         219.424         330.367         438.485         438.485         526.467
   50          70.607          70.607         140.442         219.937         219.937         327.016         438.881         438.881         526.938
   51          71.814          71.814         142.405         220.410         220.410         323.628         439.263         439.263         527.423
   52          73.014          73.014         144.326         220.840         220.840         320.208         439.629         439.629         527.922
   53          74.206          74.206         146.204         221.228         221.228         316.757         439.979         439.979         528.432
   54          75.391          75.391         148.041         221.573         221.573         313.278         440.314         440.314         528.955
   55          76.568          76.568         149.834         221.876         221.876         309.773         440.632         440.632         529.488
   56          77.738          77.738         151.586         222.136         222.136         306.244         440.934         440.934         530.032
   57          78.901          78.901         153.297         222.352         222.352         302.695         441.220         441.220         530.585
   58          80.057          80.057         154.965         222.526         222.526         299.128         441.490         441.490         531.146
   59          81.206          81.206         156.592         222.658         222.658         295.547         441.743         441.743         531.716
   60          82.349          82.349         158.179         222.747         222.747         291.953         441.981         441.981         532.292
   61          83.485          83.485         159.724         222.795         222.795         288.351         442.202         442.202         532.873
   62          84.614          84.614         161.229         222.802         222.802         284.743         442.408         442.408         533.460
   63          85.737          85.737         162.693         222.768         222.768         281.132         442.598         442.598         534.050
   64          86.852          86.852         164.118         222.696         222.696         277.523         442.772         442.772         534.642
   65          87.960          87.960         165.502         222.585         222.585         273.919         442.932         442.932         535.237
   66          89.061          89.061         166.847         222.437         222.437         270.322         443.078         443.078         535.831
   67          90.154          90.154         168.153         222.253         222.253         266.739         443.209         443.209         536.426
   68          91.239          91.239         169.419         222.035         222.035         263.171         443.327         443.327         537.018
   69          92.315          92.315         170.646         221.783         221.783         259.624         443.432         443.432         537.607
   70          93.382          93.382         171.835         221.500         221.500         256.101         443.524         443.524         538.193
   71          94.439          94.439         172.985         221.188         221.188         252.608         443.605         443.605         538.773
   72          95.486          95.486         174.096         220.847         220.847         249.148         443.673         443.673         539.347
   73          96.521          96.521         175.170         220.481         220.481         245.726         443.731         443.731         539.914
   74          97.543          97.543         176.205         220.091         220.091         242.348         443.779         443.779         540.472
   75          98.552          98.552         177.202         219.679         219.679         239.018         443.818         443.818         541.021
   76          99.546          99.546         178.161         219.248         219.248         235.742         443.847         443.847         541.559
   77         100.525         100.525         179.083         218.800         218.800         232.525         443.868         443.868         542.085
   78         101.485         101.485         179.967         218.337         218.337         229.372         443.882         443.882         542.598
   79         102.427         102.427         180.813         217.863         217.863         226.290         443.889         443.889         543.098
   80         103.349         103.349         181.622         217.380         217.380         223.284         443.890         443.890         543.583
   81         104.248         104.248         182.393         216.890         216.890         220.360         443.885         443.885         544.052
   82         105.123         105.123         183.126         216.397         216.397         217.524         443.876         443.876         544.505
   83         105.972         105.972         183.822         214.782         215.904         215.904         443.862         443.862         544.940
   84         106.793         106.793         184.481         212.142         215.413         215.413         443.845         443.845         545.357
   85         107.584         107.584         185.102         209.608         214.928         214.928         443.825         443.825         545.754
   86         108.343         108.343         185.686         207.187         214.452         214.452         443.803         443.803         546.132
   87         109.067         109.067         186.232         204.886         213.988         213.988         443.779         443.779         546.489
   88         109.754         109.754         186.741         202.710         213.539         213.539         443.755         443.755         546.824
   89         110.402         110.402         187.212         200.666         213.108         213.108         443.729         443.729         547.137
   90         111.009         111.009         187.646         198.761         212.698         212.698         443.704         443.704         547.428
   91         111.572         111.572         188.042         196.998         212.312         212.312         443.679         443.679         547.695
   92         112.089         112.089         188.400         195.385         211.953         211.953         443.655         443.655         547.938
   93         112.559         112.559         188.721         193.927         211.624         211.624         443.633         443.633         548.157
   94         112.978         112.978         189.004         192.627         211.327         211.327         443.612         443.612         548.351
   95         113.345         113.345         189.250         191.491         211.065         211.065         443.593         443.593         548.520
   96         113.659         113.659         189.457         190.523         210.839         210.839         443.577         443.577         548.664
   97         113.919         113.919         189.627         189.726         210.651         210.651         443.563         443.563         548.782
   98         114.121         114.121         189.103         189.760         210.504         210.504         443.552         443.552         548.874
   99         114.267         114.267         188.657         189.854         210.398         210.398         443.544         443.544         548.940
  100         114.355         114.355         188.388         189.911         210.334         210.334         443.540         443.540         548.979
  101         114.384         114.384         188.298         189.930         210.312         210.312         443.538         443.538         548.992
  102         114.375         114.412         188.299         189.907         210.345         210.418         443.498         443.538         548.997
  103         114.347         114.495         188.303         189.838         210.443         210.735         443.380         443.537         549.011
  104         114.300         114.634         188.309         189.726         210.604         211.260         443.181         443.536         549.033
  105         114.235         114.829         188.318         189.575         210.829         211.987         442.904         443.534         549.065
  106         114.152         115.077         188.332         189.387         211.114         212.911         442.548         443.532         549.105
  107         114.051         115.380         188.351         189.166         211.457         214.024         442.113         443.529         549.154
  108         113.932         115.735         188.377         188.916         211.855         215.319         441.598         443.525         549.212
  109         113.796         116.142         188.411         188.640         212.306         216.788         441.006         443.522         549.277
  110         113.643         116.601         188.341         188.454         212.806         218.425         440.334         443.517         549.352
  111         113.473         117.109         188.019         188.507         213.352         220.222         439.585         443.512         549.433
  112         113.288         117.665         187.677         188.572         213.939         222.172         438.757         443.507         549.523
  113         113.087         118.268         187.314         188.650         214.565         224.269         437.852         443.500         549.620
  114         112.871         118.917         186.932         188.741         215.225         226.504         436.869         443.494         549.723
  115         112.641         119.609         186.530         188.845         215.915         228.872         435.809         443.486         549.833
  116         112.398         120.343         186.110         188.963         216.633         231.365         434.672         443.479         549.950
  117         112.142         121.118         185.669         189.096         217.374         233.977         433.459         443.470         550.072
  118         111.875         121.931         185.209         189.242         218.135         236.701         432.169         443.461         550.200
  119         111.597         122.781         184.729         189.403         218.913         239.530         430.804         443.452         550.332
  120         111.309         123.665         184.229         189.576         219.703         242.458         429.364         443.442         550.469
  121         111.012         124.583         183.709         189.763         220.503         245.477         427.849         443.432         550.609
  122         110.708         125.531         183.168         189.961         221.309         248.581         426.259         443.421         550.753
  123         110.396         126.508         182.606         190.171         222.119         251.763         424.596         443.409         550.900
  124         110.080         127.513         182.023         190.391         222.929         255.018         422.860         443.398         551.049
  125         109.758         128.542         181.419         190.619         223.736         258.339         421.051         443.386         551.199
  126         109.434         129.595         180.794         190.855         224.537         261.719         419.171         443.373         551.351
  127         109.108         130.669         180.147         191.098         225.330         265.153         417.219         443.361         551.503
  128         108.781         131.763         179.479         191.345         226.111         268.635         415.196         443.348         551.655
  129         108.455         132.874         178.790         191.596         226.879         272.160         413.104         443.335         551.806
  130         108.130         134.002         178.079         191.850         227.631         275.722         410.942         443.322         551.956
  131         107.810         135.143         177.347         192.103         228.364         279.316         408.713         443.309         552.104
  132         107.494         136.296         176.593         192.356         229.076         282.936         406.415         443.296         552.249
  133         107.184         137.460         175.818         192.607         229.764         286.578         404.051         443.284         552.391
