# Phonon frequencies in cm-1
    1           0.000           0.000           0.000         285.332         285.332         680.994
    2           4.102           4.105          10.371         285.384         285.484         680.969
    3           8.203           8.209          20.738         285.537         285.938         680.896
    4          12.304          12.311          31.096         285.793         286.692         680.775
    5          16.404          16.410          41.442         286.150         287.743         680.605
    6          20.503          20.506          51.770         286.607         289.087         680.386
    7          24.597          24.601          62.077         287.164         290.718         680.118
    8          28.682          28.698          72.359         287.818         292.630         679.802
    9          32.761          32.794          82.610         288.567         294.814         679.436
   10          36.832          36.887          92.828         289.411         297.263         679.022
   11          40.894          40.979         103.008         290.346         299.968         678.558
   12          44.947          45.068         113.145         291.370         302.918         678.045
   13          48.989          49.155         123.236         292.482         306.103         677.482
   14          53.020          53.239         133.276         293.677         309.513         676.869
   15          57.038          57.320         143.261         294.953         313.136         676.207
   16          61.042          61.398         153.188         296.307         316.962         675.495
   17          65.031          65.472         163.053         297.735         320.979         674.732
   18          69.004          69.543         172.851         299.235         325.176         673.919
   19          72.960          73.610         182.579         300.804         329.541         673.055
   20          76.898          77.673         192.232         302.437         334.063         672.140
   21          80.817          81.731         201.808         304.131         338.732         671.175
   22          84.715          85.785         211.302         305.882         343.537         670.158
   23          88.591          89.833         220.711         307.688         348.466         669.090
   24          92.444          93.877         230.031         309.544         353.510         667.970
   25          96.273          97.915         239.259         311.448         358.660         666.799
   26         100.077         101.948         248.392         313.394         363.904         665.576
   27         103.855         105.975         257.426         315.381         369.234         664.301
   28         107.605         109.995         266.357         317.404         374.642         662.974
   29         111.326         114.009         275.184         319.460         380.118         661.595
   30         115.017         118.017         283.902         321.545         385.653         660.164
   31         118.677         122.017         292.510         323.656         391.241         658.681
   32         122.305         126.010         301.004         325.791         396.873         657.145
   33         125.900         129.996         309.381         327.945         402.542         655.557
   34         129.460         133.974         317.640         330.115         408.241         653.918
   35         132.985         137.944         325.778         332.300         413.962         652.226
   36         136.473         141.905         333.793         334.494         419.700         650.483
   37         139.923         145.858         336.696         341.683         425.448         648.688
   38         143.334         149.802         338.904         349.445         431.199         646.841
   39         146.706         153.738         341.113         357.080         436.949         644.944
   40         150.037         157.663         343.322         364.584         442.690         642.995
   41         153.327         161.579         345.527         371.956         448.418         640.996
   42         156.573         165.486         347.727         379.197         454.127         638.948
   43         159.776         169.382         349.920         386.304         459.812         636.849
   44         162.935         173.267         352.102         393.276         465.467         634.702
   45         166.048         177.142         354.272         400.114         471.089         632.506
   46         169.116         181.005         356.428         406.817         476.671         630.262
   47         172.136         184.857         358.568         413.384         482.210         627.971
   48         175.109         188.698         360.689         419.816         487.700         625.634
   49         178.033         192.526         362.790         426.112         493.139         623.252
   50         180.908         196.342         364.870         432.272         498.520         620.825
   51         183.734         200.145         366.926         438.297         503.840         618.354
   52         186.509         203.934         368.957         444.188         509.096         615.841
   53         189.233         207.710         370.962         449.943         514.283         613.287
   54         191.906         211.473         372.939         455.566         519.398         610.692
   55         194.526         215.220         374.886         461.054         524.437         608.059
   56         197.094         218.953         376.804         466.411         529.398         605.388
   57         199.609         222.670         378.689         471.635         534.276         602.682
   58         202.071         226.371         380.542         476.728         539.068         599.941
   59         204.478         230.055         382.361         481.691         543.773         597.167
   60         206.832         233.722         384.146         486.525         548.387         594.363
   61         209.131         237.370         385.894         491.229         552.908         591.529
   62         211.374         241.000         387.607         495.806         557.334         588.669
   63         213.563         244.610         389.281         500.255         561.661         585.784
   64         215.696         248.199         390.918         504.579         565.889         582.876
   65         217.774         251.766         392.516         508.776         570.016         579.947
   66         219.795         255.310         394.074         512.849         574.039         577.001
   67         221.760         258.830         395.592         516.799         574.040         577.958
   68         223.669         262.324         397.070         520.625         571.067         581.770
   69         225.521         265.791         398.506         524.328         568.084         585.475
   70         227.317         269.229         399.902         527.910         565.095         589.070
   71         229.056         272.636         401.255         531.371         562.103         592.557
   72         230.738         276.010         402.565         534.711         559.112         595.932
   73         232.363         279.350         403.833         537.932         556.125         599.196
   74         233.930         282.651         405.058         541.034         553.147         602.348
   75         235.441         285.913         406.240         544.017         550.181         605.387
   76         236.895         289.131         407.378         546.883         547.233         608.313
   77         238.291         292.302         408.473         544.306         549.632         611.125
   78         239.631         295.423         409.524         541.406         552.264         613.823
   79         240.913         298.490         410.530         538.539         554.779         616.406
   80         242.137         301.497         411.492         535.711         557.180         618.875
   81         243.305         304.442         412.410         532.926         559.465         621.229
   82         244.415         307.318         413.284         530.193         561.635         623.467
   83         245.468         310.119         414.112         527.518         563.692         625.591
   84         246.464         312.839         414.897         524.909         565.634         627.599
   85         247.403         315.473         415.636         522.374         567.464         629.492
   86         248.285         318.012         416.331         519.920         569.180         631.270
   87         249.109         320.449         416.981         517.557         570.784         632.933
   88         249.877         322.775         417.586         515.294         572.276         634.480
   89         250.587         324.983         418.146         513.141         573.656         635.913
   90         251.241         327.063         418.662         511.108         574.925         637.230
   91         251.837         329.006         419.133         509.204         576.082         638.433
   92         252.377         330.802         419.558         507.441         577.128         639.520
   93         252.860         332.442         419.939         505.828         578.063         640.493
   94         253.286         333.916         420.276         504.376         578.888         641.351
   95         253.655         335.216         420.567         503.095         579.603         642.095
   96         253.967         336.332         420.813         501.993         580.207         642.724
   97         254.222         337.257         421.015         501.079         580.701         643.239
   98         254.421         337.984         421.172         500.360         581.086         643.639
   99         254.563         338.507         421.284         499.842         581.360         643.925
  100         254.648         338.823         421.351         499.530         581.525         644.096
  101         254.676         338.929         421.374         499.425         581.579         644.153
  102         254.835         338.960         421.450         499.401         581.552         644.126
  103         255.312         339.054         421.681         499.329         581.468         644.045
  104         256.103         339.211         422.064         499.209         581.329         643.910
  105         257.204         339.431         422.599         499.041         581.134         643.721
  106         258.610         339.712         423.283         498.825         580.883         643.478
  107         260.312         340.056         424.115         498.561         580.577         643.182
  108         262.303         340.461         425.093         498.249         580.216         642.832
  109         264.570         340.927         426.212         497.889         579.800         642.430
  110         267.105         341.454         427.469         497.481         579.328         641.976
  111         269.893         342.041         428.861         497.025         578.803         641.471
  112         272.922         342.687         430.383         496.521         578.222         640.914
  113         276.180         343.392         432.030         495.970         577.588         640.307
  114         279.651         344.155         433.798         495.370         576.900         639.650
  115         283.321         344.975         435.682         494.723         576.159         638.944
  116         287.177         345.852         437.675         494.027         575.365         638.191
  117         291.203         346.784         439.771         493.284         574.519         637.390
  118         295.386         347.771         441.966         492.493         573.621         636.543
  119         299.711         348.812         444.252         491.655         572.671         635.652
  120         304.164         349.905         446.623         490.769         571.671         634.716
  121         308.731         351.051         449.073         489.835         570.621         633.738
  122         313.400         352.248         451.594         488.854         569.521         632.719
  123         318.156         353.495         454.181         487.825         568.374         631.660
  124         322.987         354.791         456.825         486.749         567.178         630.562
  125         327.881         356.135         459.520         485.625         565.936         629.428
  126         332.826         357.526         462.258         484.454         564.649         628.260
  127         337.811         358.964         465.034         483.236         563.318         627.058
  128         342.824         360.448         467.838         481.971         561.943         625.825
  129         347.853         361.976         470.663         480.659         560.527         624.564
  130         352.890         363.548         473.504         479.301         559.072         623.276
  131         357.923         365.162         476.350         477.895         557.578         621.964
  132         362.942         366.819         476.444         479.196         556.048         620.631
  133         367.938         368.517         474.945         482.033         554.484         619.279
  134         370.256         372.901         473.401         484.853         552.888         617.912
  135         372.035         377.821         471.811         487.649         551.265         616.533
  136         373.853         382.689         470.174         490.413         549.615         615.147
  137         375.710         387.495         468.493         493.135         547.944         613.756
  138         377.604         392.230         466.765         495.807         546.255         612.365
  139         379.536         396.883         464.993         498.421         544.553         610.980
  140         381.505         401.445         463.175         500.967         542.842         609.605
  141         383.510         405.905         461.313         503.436         541.130         608.247
  142         385.551         410.250         459.407         505.819         539.423         606.910
  143         387.628         414.471         457.456         508.104         537.729         605.603
  144         389.740         418.552         455.461         510.281         536.058         604.333
  145         391.886         422.481         453.423         512.339         534.419         603.106
  146         394.067         426.242         451.342         514.268         532.826         601.932
  147         396.282         429.817         449.218         516.056         531.292         600.818
  148         398.531         433.188         447.051         517.690         529.833         599.774
  149         400.813         436.335         444.842         519.160         528.467         598.808
  150         403.129         439.236         442.591         520.455         527.214         597.928
  151         405.477         440.299         441.867         521.565         526.095         597.142
  152         407.859         437.966         444.205         522.480         525.133         596.457
  153         410.272         435.592         446.226         523.189         524.351         595.877
  154         412.719         433.178         447.909         523.617         523.843         595.406
  155         415.196         430.725         449.234         523.357         524.026         595.045
  156         417.705         428.234         450.190         523.214         524.108         594.792
  157         420.242         425.707         450.770         523.296         523.988         594.643
  158         422.681         423.273         450.975         523.585         523.687         594.592
  159         420.089         425.861         450.758         523.040         524.243         594.643
  160         417.460         428.479         450.202         522.312         524.993         594.770
  161         414.795         431.128         449.328         521.410         525.914         594.962
  162         412.094         433.807         448.162         520.346         526.981         595.206
  163         409.359         436.516         446.730         519.131         528.167         595.489
  164         406.589         439.253         445.058         517.775         529.446         595.800
  165         403.784         442.020         443.170         516.291         530.793         596.126
  166         400.947         441.089         444.815         514.687         532.185         596.455
  167         398.076         438.836         447.638         512.974         533.600         596.776
  168         395.173         436.430         450.489         511.160         535.022         597.080
  169         392.238         433.885         453.367         509.256         536.433         597.356
  170         389.272         431.216         456.271         507.266         537.821         597.595
  171         386.275         428.435         459.201         505.200         539.172         597.791
  172         383.248         425.553         462.156         503.062         540.477         597.935
  173         380.192         422.578         465.135         500.860         541.727         598.021
  174         377.106         419.519         468.138         498.596         542.913         598.043
  175         373.993         416.383         471.164         496.277         544.031         597.995
  176         370.851         413.175         474.212         493.906         545.073         597.872
  177         367.683         409.900         477.282         491.486         546.035         597.670
  178         364.488         406.563         480.371         489.022         546.912         597.385
  179         361.266         403.169         483.479         486.516         547.702         597.012
  180         358.020         399.720         483.970         486.605         548.400         596.548
  181         354.749         396.221         481.388         489.749         549.004         595.990
  182         351.454         392.673         478.770         492.908         549.512         595.335
  183         348.135         389.080         476.120         496.081         549.921         594.580
  184         344.793         385.443         473.439         499.268         550.229         593.721
  185         341.428         381.766         470.729         502.467         550.435         592.758
  186         338.042         378.049         467.991         505.677         550.538         591.687
  187         334.634         374.295         465.227         508.896         550.535         590.506
  188         331.206         370.505         462.437         512.123         550.426         589.214
  189         327.757         366.680         459.624         515.356         550.210         587.807
  190         324.289         362.823         456.789         518.595         549.886         586.286
  191         320.801         358.934         453.931         521.837         549.453         584.647
  192         317.295         355.014         451.053         525.081         548.910         582.889
  193         313.771         351.065         448.156         528.325         548.257         581.010
  194         310.229         347.088         445.240         531.568         547.493         579.009
  195         306.670         343.083         442.306         534.808         546.618         576.885
