#   T(K)    C_v(k_B/fu)        Gamma     alpha_v*10^6(K^-1)   E_th(eV)                       P_th(GPa)
#                                                                         ----------------------------------------------
#                                                                          {sum G_i.U_iV}  {int G.C_v/V dT}    {G.U/V}
# ----------------------------------------------------------------------------------------------------------------------
    10           0.000           0.113           0.000           0.158           1.136           0.000           0.203
    20           0.004           0.158           0.000           0.158           1.136           0.000           0.284
    30           0.019           0.199           0.002           0.158           1.136           0.000           0.357
    40           0.053           0.235           0.009           0.158           1.136           0.000           0.422
    50           0.117           0.262           0.022           0.158           1.137           0.000           0.471
    60           0.219           0.285           0.046           0.158           1.137           0.001           0.512
    70           0.357           0.305           0.082           0.159           1.138           0.002           0.550
    80           0.527           0.325           0.129           0.159           1.139           0.004           0.587
    90           0.722           0.344           0.188           0.160           1.141           0.006           0.623
   100           0.933           0.362           0.257           0.160           1.144           0.010           0.658
   110           1.154           0.378           0.334           0.161           1.148           0.014           0.693
   120           1.380           0.394           0.417           0.162           1.153           0.019           0.726
   130           1.607           0.408           0.504           0.164           1.159           0.026           0.759
   140           1.831           0.421           0.594           0.165           1.166           0.033           0.790
   150           2.050           0.433           0.685           0.167           1.174           0.042           0.820
   160           2.261           0.444           0.775           0.169           1.183           0.052           0.850
   170           2.463           0.454           0.863           0.171           1.193           0.063           0.879
   180           2.656           0.462           0.949           0.173           1.205           0.075           0.908
   190           2.839           0.470           1.033           0.175           1.217           0.088           0.936
   200           3.012           0.477           1.113           0.178           1.231           0.102           0.963
   210           3.175           0.484           1.189           0.180           1.246           0.117           0.991
   220           3.329           0.489           1.262           0.183           1.261           0.133           1.018
   230           3.473           0.495           1.331           0.186           1.277           0.150           1.045
   240           3.607           0.499           1.396           0.189           1.295           0.167           1.073
   250           3.734           0.503           1.458           0.192           1.313           0.186           1.100
   260           3.852           0.507           1.516           0.196           1.331           0.205           1.127
   270           3.962           0.511           1.570           0.199           1.351           0.225           1.154
   280           4.065           0.514           1.622           0.202           1.371           0.245           1.182
   290           4.162           0.517           1.670           0.206           1.392           0.266           1.210
   300           4.252           0.520           1.715           0.210           1.413           0.288           1.237
   310           4.337           0.522           1.758           0.213           1.435           0.310           1.265
   320           4.416           0.524           1.798           0.217           1.457           0.333           1.293
   330           4.491           0.527           1.836           0.221           1.480           0.356           1.321
   340           4.560           0.528           1.871           0.225           1.504           0.379           1.349
   350           4.626           0.530           1.905           0.229           1.528           0.403           1.378
   360           4.687           0.532           1.936           0.233           1.552           0.428           1.406
   370           4.744           0.533           1.966           0.237           1.576           0.452           1.435
   380           4.799           0.535           1.994           0.241           1.601           0.478           1.464
   390           4.850           0.536           2.020           0.245           1.627           0.503           1.493
   400           4.897           0.537           2.045           0.249           1.652           0.529           1.522
   410           4.943           0.539           2.068           0.254           1.678           0.555           1.551
   420           4.985           0.540           2.090           0.258           1.704           0.581           1.581
   430           5.026           0.541           2.111           0.262           1.731           0.608           1.610
   440           5.064           0.542           2.131           0.266           1.758           0.635           1.640
   450           5.100           0.543           2.150           0.271           1.785           0.662           1.669
   460           5.134           0.543           2.168           0.275           1.812           0.689           1.699
   470           5.166           0.544           2.184           0.280           1.839           0.717           1.729
   480           5.196           0.545           2.200           0.284           1.867           0.744           1.759
   490           5.225           0.546           2.216           0.289           1.895           0.772           1.789
   500           5.253           0.546           2.230           0.293           1.923           0.800           1.819
   510           5.279           0.547           2.244           0.298           1.951           0.829           1.849
   520           5.304           0.547           2.257           0.302           1.979           0.857           1.880
   530           5.327           0.548           2.269           0.307           2.008           0.886           1.910
   540           5.350           0.549           2.281           0.311           2.036           0.914           1.941
   550           5.371           0.549           2.292           0.316           2.065           0.943           1.971
   560           5.391           0.550           2.303           0.321           2.094           0.972           2.002
   570           5.411           0.550           2.313           0.325           2.123           1.001           2.033
   580           5.429           0.550           2.323           0.330           2.152           1.031           2.063
   590           5.447           0.551           2.332           0.335           2.182           1.060           2.094
   600           5.464           0.551           2.341           0.339           2.211           1.089           2.125
   610           5.480           0.552           2.350           0.344           2.241           1.119           2.156
   620           5.496           0.552           2.358           0.349           2.270           1.149           2.187
   630           5.510           0.552           2.366           0.354           2.300           1.178           2.218
   640           5.525           0.553           2.373           0.358           2.330           1.208           2.249
   650           5.538           0.553           2.380           0.363           2.360           1.238           2.281
   660           5.551           0.553           2.387           0.368           2.390           1.268           2.312
   670           5.564           0.553           2.394           0.373           2.420           1.299           2.343
   680           5.576           0.554           2.400           0.377           2.450           1.329           2.375
   690           5.587           0.554           2.406           0.382           2.480           1.359           2.406
   700           5.598           0.554           2.412           0.387           2.511           1.389           2.437
   710           5.609           0.554           2.418           0.392           2.541           1.420           2.469
   720           5.619           0.555           2.423           0.397           2.571           1.450           2.500
   730           5.629           0.555           2.429           0.402           2.602           1.481           2.532
   740           5.638           0.555           2.434           0.406           2.633           1.512           2.563
   750           5.647           0.555           2.438           0.411           2.663           1.542           2.595
   760           5.656           0.556           2.443           0.416           2.694           1.573           2.627
   770           5.665           0.556           2.448           0.421           2.725           1.604           2.658
   780           5.673           0.556           2.452           0.426           2.756           1.635           2.690
   790           5.681           0.556           2.456           0.431           2.787           1.666           2.722
   800           5.688           0.556           2.460           0.436           2.818           1.697           2.754
   810           5.696           0.556           2.464           0.441           2.849           1.728           2.785
   820           5.703           0.557           2.468           0.446           2.880           1.759           2.817
   830           5.710           0.557           2.471           0.450           2.911           1.790           2.849
   840           5.716           0.557           2.475           0.455           2.942           1.821           2.881
   850           5.723           0.557           2.478           0.460           2.973           1.852           2.913
   860           5.729           0.557           2.482           0.465           3.004           1.883           2.945
   870           5.735           0.557           2.485           0.470           3.035           1.915           2.977
   880           5.740           0.557           2.488           0.475           3.067           1.946           3.009
   890           5.746           0.558           2.491           0.480           3.098           1.977           3.041
   900           5.751           0.558           2.494           0.485           3.130           2.009           3.073
   910           5.757           0.558           2.497           0.490           3.161           2.040           3.105
   920           5.762           0.558           2.499           0.495           3.192           2.072           3.137
   930           5.767           0.558           2.502           0.500           3.224           2.103           3.169
   940           5.772           0.558           2.504           0.505           3.255           2.135           3.201
   950           5.776           0.558           2.507           0.510           3.287           2.166           3.233
   960           5.781           0.558           2.509           0.515           3.318           2.198           3.265
   970           5.785           0.558           2.512           0.520           3.350           2.230           3.297
   980           5.789           0.558           2.514           0.525           3.382           2.261           3.330
   990           5.793           0.559           2.516           0.530           3.413           2.293           3.362
  1000           5.797           0.559           2.518           0.535           3.445           2.325           3.394
  1010           5.801           0.559           2.520           0.540           3.477           2.356           3.426
  1020           5.805           0.559           2.522           0.545           3.509           2.388           3.459
  1030           5.809           0.559           2.524           0.550           3.540           2.420           3.491
  1040           5.812           0.559           2.526           0.555           3.572           2.452           3.523
  1050           5.816           0.559           2.528           0.560           3.604           2.483           3.555
  1060           5.819           0.559           2.530           0.565           3.636           2.515           3.588
  1070           5.822           0.559           2.532           0.570           3.668           2.547           3.620
  1080           5.826           0.559           2.533           0.575           3.699           2.579           3.652
  1090           5.829           0.559           2.535           0.580           3.731           2.611           3.685
  1100           5.832           0.559           2.537           0.585           3.763           2.643           3.717
  1110           5.835           0.559           2.538           0.590           3.795           2.675           3.749
  1120           5.838           0.559           2.540           0.595           3.827           2.707           3.782
  1130           5.840           0.560           2.541           0.600           3.859           2.739           3.814
  1140           5.843           0.560           2.543           0.605           3.891           2.771           3.846
  1150           5.846           0.560           2.544           0.610           3.923           2.803           3.879
  1160           5.848           0.560           2.545           0.615           3.955           2.835           3.911
  1170           5.851           0.560           2.547           0.620           3.987           2.867           3.944
  1180           5.853           0.560           2.548           0.625           4.019           2.899           3.976
  1190           5.856           0.560           2.549           0.630           4.051           2.931           4.009
  1200           5.858           0.560           2.551           0.635           4.084           2.963           4.041
  1210           5.860           0.560           2.552           0.640           4.116           2.995           4.074
  1220           5.863           0.560           2.553           0.645           4.148           3.028           4.106
  1230           5.865           0.560           2.554           0.650           4.180           3.060           4.139
  1240           5.867           0.560           2.555           0.656           4.212           3.092           4.171
  1250           5.869           0.560           2.557           0.661           4.244           3.124           4.204
  1260           5.871           0.560           2.558           0.666           4.276           3.156           4.236
  1270           5.873           0.560           2.559           0.671           4.309           3.188           4.269
  1280           5.875           0.560           2.560           0.676           4.341           3.221           4.301
  1290           5.877           0.560           2.561           0.681           4.373           3.253           4.334
  1300           5.879           0.560           2.562           0.686           4.405           3.285           4.366
  1310           5.881           0.560           2.563           0.691           4.438           3.317           4.399
  1320           5.882           0.560           2.564           0.696           4.470           3.350           4.431
  1330           5.884           0.560           2.565           0.701           4.502           3.382           4.464
  1340           5.886           0.561           2.565           0.706           4.534           3.414           4.496
  1350           5.887           0.561           2.566           0.711           4.567           3.447           4.529
  1360           5.889           0.561           2.567           0.716           4.599           3.479           4.562
  1370           5.891           0.561           2.568           0.721           4.631           3.511           4.594
  1380           5.892           0.561           2.569           0.726           4.664           3.544           4.627
  1390           5.894           0.561           2.570           0.732           4.696           3.576           4.659
  1400           5.895           0.561           2.571           0.737           4.728           3.608           4.692
  1410           5.897           0.561           2.571           0.742           4.761           3.641           4.725
  1420           5.898           0.561           2.572           0.747           4.793           3.673           4.757
  1430           5.899           0.561           2.573           0.752           4.826           3.705           4.790
  1440           5.901           0.561           2.574           0.757           4.858           3.738           4.823
  1450           5.902           0.561           2.574           0.762           4.890           3.770           4.855
  1460           5.904           0.561           2.575           0.767           4.923           3.803           4.888
  1470           5.905           0.561           2.576           0.772           4.955           3.835           4.921
  1480           5.906           0.561           2.576           0.777           4.988           3.867           4.953
  1490           5.907           0.561           2.577           0.782           5.020           3.900           4.986
  1500           5.909           0.561           2.578           0.787           5.052           3.932           5.019
  1510           5.910           0.561           2.578           0.793           5.085           3.965           5.051
  1520           5.911           0.561           2.579           0.798           5.117           3.997           5.084
  1530           5.912           0.561           2.580           0.803           5.150           4.030           5.117
  1540           5.913           0.561           2.580           0.808           5.182           4.062           5.149
  1550           5.914           0.561           2.581           0.813           5.215           4.095           5.182
  1560           5.915           0.561           2.581           0.818           5.247           4.127           5.215
  1570           5.916           0.561           2.582           0.823           5.280           4.160           5.247
  1580           5.917           0.561           2.582           0.828           5.312           4.192           5.280
  1590           5.918           0.561           2.583           0.833           5.345           4.225           5.313
  1600           5.919           0.561           2.584           0.838           5.377           4.257           5.346
  1610           5.920           0.561           2.584           0.844           5.410           4.290           5.378
  1620           5.921           0.561           2.585           0.849           5.442           4.322           5.411
  1630           5.922           0.561           2.585           0.854           5.475           4.355           5.444
  1640           5.923           0.561           2.586           0.859           5.507           4.387           5.476
