# Phonon frequencies in cm-1
    1         475.458         475.458         550.294         550.294         904.938        1116.870
    2         475.013         475.013         550.695         550.695         904.813        1116.865
    3         473.706         473.706         551.871         551.871         904.440        1116.851
    4         471.613         471.613         553.747         553.747         903.819        1116.827
    5         468.836         468.836         556.219         556.219         902.950        1116.794
    6         465.485         465.485         559.178         559.178         901.835        1116.749
    7         461.664         461.664         562.521         562.521         900.473        1116.694
    8         457.460         457.460         566.162         566.162         898.868        1116.626
    9         452.946         452.946         570.027         570.027         897.020        1116.545
   10         448.178         448.178         574.061         574.061         894.930        1116.450
   11         443.203         443.203         578.217         578.217         892.602        1116.340
   12         438.056         438.056         582.462         582.462         890.037        1116.213
   13         432.767         432.767         586.766         586.766         887.236        1116.069
   14         427.358         427.358         591.108         591.108         884.203        1115.906
   15         421.846         421.846         595.471         595.471         880.940        1115.722
   16         416.248         416.248         599.840         599.840         877.449        1115.518
   17         410.576         410.576         604.205         604.205         873.732        1115.290
   18         404.840         404.840         608.555         608.555         869.793        1115.040
   19         399.049         399.049         612.883         612.883         865.632        1114.764
   20         393.211         393.211         617.182         617.182         861.255        1114.463
   21         387.332         387.332         621.447         621.447         856.661        1114.136
   22         381.418         381.418         625.674         625.674         851.855        1113.781
   23         375.474         375.474         629.858         629.858         846.838        1113.398
   24         369.506         369.506         633.996         633.996         841.614        1112.987
   25         363.518         363.518         638.086         638.086         836.184        1112.546
   26         357.513         357.513         642.124         642.124         830.551        1112.076
   27         351.496         351.496         646.109         646.109         824.718        1111.577
   28         345.470         345.470         650.039         650.039         818.686        1111.047
   29         339.437         339.437         653.912         653.912         812.459        1110.487
   30         333.403         333.403         657.726         657.726         806.038        1109.898
   31         327.368         327.368         661.481         661.481         799.425        1109.279
   32         321.337         321.337         665.175         665.175         792.624        1108.630
   33         315.311         315.311         668.808         668.808         785.635        1107.952
   34         309.295         309.295         672.378         672.378         778.462        1107.245
   35         303.289         303.289         675.885         675.885         771.107        1106.511
   36         297.297         297.297         679.329         679.329         763.571        1105.748
   37         291.321         291.321         682.708         682.708         755.857        1104.959
   38         285.364         285.364         686.023         686.023         747.967        1104.144
   39         279.427         279.427         689.272         689.272         739.903        1103.303
   40         273.514         273.514         692.457         692.457         731.668        1102.438
   41         267.625         267.625         695.577         695.577         723.263        1101.550
   42         261.764         261.764         698.631         698.631         714.690        1100.639
   43         255.932         255.932         701.620         701.620         705.952        1099.707
   44         250.131         250.131         697.050         704.544         704.544        1098.755
   45         244.363         244.363         687.988         707.402         707.402        1097.784
   46         238.630         238.630         678.767         710.196         710.196        1096.796
   47         232.935         232.935         669.388         712.924         712.924        1095.791
   48         227.278         227.278         659.856         715.588         715.588        1094.771
   49         221.662         221.662         650.171         718.188         718.188        1093.737
   50         216.087         216.087         640.335         720.723         720.723        1092.690
   51         210.556         210.556         630.352         723.195         723.195        1091.633
   52         205.071         205.071         620.223         725.604         725.604        1090.566
   53         199.632         199.632         609.951         727.949         727.949        1089.491
   54         194.242         194.242         599.538         730.232         730.232        1088.409
   55         188.900         188.900         588.986         732.454         732.454        1087.321
   56         183.610         183.610         578.297         734.614         734.614        1086.230
   57         178.371         178.371         567.475         736.713         736.713        1085.136
   58         173.185         173.185         556.521         738.752         738.752        1084.042
   59         168.054         168.054         545.438         740.731         740.731        1082.948
   60         162.977         162.977         534.228         742.651         742.651        1081.856
   61         157.956         157.956         522.894         744.512         744.512        1080.767
   62         152.992         152.992         511.439         746.316         746.316        1079.683
   63         148.085         148.085         499.864         748.062         748.062        1078.606
   64         143.236         143.236         488.173         749.752         749.752        1077.536
   65         138.445         138.445         476.369         751.386         751.386        1076.475
   66         133.714         133.714         464.453         752.965         752.965        1075.425
   67         129.041         129.041         452.429         754.489         754.489        1074.387
   68         124.428         124.428         440.298         755.960         755.960        1073.363
   69         119.874         119.874         428.065         757.378         757.378        1072.353
   70         115.380         115.380         415.732         758.743         758.743        1071.359
   71         110.945         110.945         403.301         760.056         760.056        1070.383
   72         106.569         106.569         390.776         761.318         761.318        1069.425
   73         102.251         102.251         378.159         762.530         762.530        1068.487
   74          97.992          97.992         365.453         763.693         763.693        1067.570
   75          93.791          93.791         352.661         764.806         764.806        1066.675
   76          89.647          89.647         339.787         765.871         765.871        1065.804
   77          85.558          85.558         326.832         766.889         766.889        1064.958
   78          81.525          81.525         313.800         767.859         767.859        1064.137
   79          77.546          77.546         300.694         768.783         768.783        1063.343
   80          73.620          73.620         287.517         769.662         769.662        1062.577
   81          69.745          69.745         274.273         770.495         770.495        1061.840
   82          65.921          65.921         260.963         771.283         771.283        1061.132
   83          62.145          62.145         247.592         772.028         772.028        1060.455
   84          58.415          58.415         234.162         772.729         772.729        1059.809
   85          54.731          54.731         220.677         773.387         773.387        1059.196
   86          51.090          51.090         207.140         774.002         774.002        1058.616
   87          47.489          47.489         193.553         774.576         774.576        1058.070
   88          43.928          43.928         179.920         775.108         775.108        1057.558
   89          40.402          40.402         166.245         775.599         775.599        1057.082
   90          36.911          36.911         152.531         776.049         776.049        1056.642
   91          33.452          33.452         138.780         776.459         776.459        1056.238
   92          30.022          30.022         124.996         776.828         776.828        1055.870
   93          26.618          26.618         111.183         777.158         777.158        1055.541
   94          23.238          23.238          97.343         777.449         777.449        1055.249
   95          19.879          19.879          83.480         777.700         777.700        1054.995
   96          16.538          16.538          69.597         777.912         777.912        1054.780
   97          13.212          13.212          55.697         778.086         778.086        1054.603
   98           9.899           9.899          41.784         778.220         778.220        1054.465
   99           6.594           6.594          27.862         778.316         778.316        1054.367
  100           3.295           3.295          13.933         778.374         778.374        1054.308
  101           0.000           0.000           0.000         778.393         778.393         778.393
  102           3.282           8.460          11.478         778.374         778.440        1054.259
  103           6.564          16.917          22.955         778.317         778.581        1054.171
  104           9.848          25.371          34.429         778.222         778.816        1054.025
  105          13.135          33.820          45.900         778.088         779.145        1053.821
  106          16.426          42.262          57.366         777.916         779.567        1053.558
  107          19.721          50.694          68.825         777.706         780.083        1053.237
  108          23.021          59.115          80.277         777.457         780.691        1052.858
  109          26.327          67.524          91.721         777.169         781.392        1052.421
  110          29.640          75.918         103.154         776.842         782.185        1051.926
  111          32.961          84.296         114.577         776.476         783.070        1051.373
  112          36.291          92.656         125.986         776.070         784.046        1050.764
  113          39.629         100.996         137.382         775.625         785.112        1050.096
  114          42.978         109.314         148.763         775.139         786.268        1049.373
  115          46.337         117.609         160.127         774.613         787.513        1048.592
  116          49.708         125.879         171.474         774.046         788.846        1047.755
  117          53.091         134.122         182.801         773.438         790.267        1046.862
  118          56.486         142.337         194.108         772.788         791.774        1045.914
  119          59.895         150.521         205.394         772.096         793.367        1044.910
  120          63.318         158.673         216.656         771.362         795.045        1043.852
  121          66.755         166.791         227.893         770.585         796.806        1042.739
  122          70.206         174.874         239.104         769.764         798.650        1041.572
  123          73.673         182.920         250.288         768.899         800.575        1040.352
  124          77.156         190.927         261.443         767.990         802.581        1039.079
  125          80.655         198.893         272.567         767.036         804.666        1037.754
  126          84.170         206.818         283.659         766.036         806.829        1036.377
  127          87.701         214.699         294.718         764.990         809.068        1034.950
  128          91.250         222.536         305.741         763.898         811.383        1033.472
  129          94.815         230.325         316.727         762.758         813.772        1031.945
  130          98.398         238.066         327.674         761.571         816.234        1030.370
  131         101.998         245.758         338.582         760.335         818.766        1028.747
  132         105.615         253.399         349.447         759.050         821.369        1027.077
  133         109.250         260.986         360.267         757.716         824.040        1025.361
  134         112.902         268.520         371.042         756.332         826.778        1023.601
  135         116.571         275.999         381.769         754.897         829.582        1021.797
  136         120.258         283.420         392.447         753.411         832.449        1019.951
  137         123.961         290.783         403.072         751.874         835.378        1018.063
  138         127.681         298.087         413.643         750.284         838.369        1016.137
  139         131.418         305.330         424.157         748.641         841.418        1014.172
  140         135.171         312.511         434.613         746.945         844.525        1012.170
  141         138.940         319.629         445.007         745.195         847.687        1010.134
  142         142.724         326.682         455.337         743.390         850.904        1008.064
  143         146.523         333.670         465.601         741.531         854.173        1005.964
  144         150.337         340.591         475.795         739.616         857.492        1003.835
  145         154.165         347.444         485.917         737.646         860.861        1001.678
  146         158.006         354.228         495.964         735.619         864.277         999.498
  147         161.860         360.942         505.931         733.536         867.739         997.296
  148         165.727         367.585         515.817         731.396         871.244         995.075
  149         169.605         374.157         525.616         729.198         874.791         992.839
  150         173.494         380.656         535.325         726.942         878.378         990.590
  151         177.393         387.081         544.940         724.629         882.004         988.333
  152         181.302         393.432         554.456         722.258         885.666         986.070
  153         185.219         399.708         563.868         719.828         889.363         983.807
  154         189.143         405.908         573.172         717.339         893.093         981.548
  155         193.075         412.031         582.362         714.792         896.853         979.299
  156         197.012         418.077         591.431         712.185         900.643         977.063
  157         200.954         424.045         600.373         709.520         904.460         974.849
  158         204.901         429.935         609.181         706.796         908.302         972.661
  159         208.850         435.746         617.848         704.013         912.168         970.508
  160         212.801         441.477         626.365         701.171         916.055         968.396
  161         216.753         447.128         634.724         698.270         919.962         966.336
  162         220.705         452.700         642.914         695.311         923.887         964.335
  163         224.655         458.190         650.926         692.293         927.828         962.404
  164         228.603         463.600         658.748         689.217         931.782         960.554
  165         232.547         468.928         666.368         686.084         935.749         958.797
  166         236.486         474.175         673.773         682.893         939.726         957.145
  167         240.420         479.341         679.645         680.948         943.710         955.614
  168         244.346         484.425         676.341         687.879         947.701         954.217
  169         248.264         489.426         672.982         694.550         951.697         952.970
  170         252.172         494.346         669.567         700.944         951.890         955.695
  171         256.068         499.184         666.097         707.044         950.994         959.693
  172         259.953         503.940         662.574         712.832         950.299         963.690
  173         263.824         508.614         658.999         718.291         949.824         967.683
  174         267.681         513.206         655.371         723.403         949.586         971.671
  175         271.521         517.716         651.693         728.152         949.600         975.652
  176         275.343         522.145         647.965         732.523         949.883         979.624
  177         279.147         526.492         644.188         736.503         950.447         983.585
  178         282.930         530.758         640.364         740.082         951.304         987.533
  179         286.692         534.943         636.493         743.253         952.460         991.466
  180         290.432         539.048         632.579         746.012         953.919         995.383
  181         294.147         543.072         628.621         748.359         955.682         999.281
  182         297.836         547.016         624.621         750.299         957.744        1003.159
  183         301.498         550.880         620.581         751.840         960.097        1007.015
  184         305.132         554.665         616.504         752.996         962.730        1010.846
  185         308.737         558.372         612.390         753.780         965.629        1014.652
  186         312.310         561.999         608.241         754.211         968.775        1018.430
  187         315.851         565.549         604.061         754.309         972.149        1022.179
  188         319.358         569.021         599.850         754.096         975.731        1025.897
  189         322.830         572.416         595.611         753.593         979.500        1029.581
  190         326.265         575.735         591.347         752.824         983.433        1033.231
  191         329.663         578.977         587.059         751.810         987.509        1036.845
  192         333.021         582.144         582.751         750.574         991.708        1040.421
  193         336.339         578.425         585.236         749.137         996.010        1043.957
  194         339.615         574.084         588.254         747.517        1000.395        1047.452
  195         342.848         569.730         591.198         745.736        1004.847        1050.903
