#   T(K)    C_v(k_B/fu)        Gamma     alpha_v*10^6(K^-1)   E_th(eV)                       P_th(GPa)
#                                                                         ----------------------------------------------
#                                                                          {sum G_i.U_iV}  {int G.C_v/V dT}    {G.U/V}
# ----------------------------------------------------------------------------------------------------------------------
    10           0.000           1.795           0.000           0.268           4.081           0.000           7.480
    20           0.001           1.794           0.001           0.268           4.081           0.000           7.479
    30           0.006           1.793           0.015           0.268           4.081           0.000           7.471
    40           0.018           1.781           0.045           0.268           4.082           0.001           7.425
    50           0.034           1.746           0.083           0.268           4.082           0.001           7.278
    60           0.054           1.678           0.126           0.268           4.083           0.003           6.996
    70           0.079           1.584           0.176           0.268           4.085           0.004           6.605
    80           0.113           1.480           0.234           0.268           4.087           0.007           6.175
    90           0.157           1.382           0.304           0.268           4.089           0.009           5.767
   100           0.212           1.297           0.386           0.268           4.093           0.013           5.416
   110           0.280           1.228           0.481           0.269           4.097           0.018           5.130
   120           0.359           1.172           0.589           0.269           4.102           0.023           4.903
   130           0.449           1.128           0.709           0.269           4.108           0.030           4.726
   140           0.549           1.094           0.841           0.270           4.115           0.038           4.590
   150           0.658           1.067           0.983           0.270           4.124           0.048           4.485
   160           0.774           1.046           1.134           0.271           4.134           0.058           4.406
   170           0.897           1.029           1.292           0.271           4.146           0.071           4.346
   180           1.023           1.015           1.455           0.272           4.159           0.085           4.302
   190           1.153           1.005           1.623           0.273           4.174           0.100           4.271
   200           1.286           0.996           1.793           0.274           4.190           0.117           4.251
   210           1.419           0.989           1.966           0.275           4.208           0.136           4.240
   220           1.552           0.984           2.138           0.277           4.228           0.157           4.235
   230           1.685           0.979           2.311           0.278           4.249           0.179           4.237
   240           1.817           0.976           2.482           0.280           4.272           0.203           4.245
   250           1.947           0.973           2.652           0.281           4.297           0.228           4.257
   260           2.075           0.970           2.819           0.283           4.323           0.255           4.273
   270           2.200           0.969           2.983           0.285           4.351           0.284           4.292
   280           2.322           0.967           3.144           0.287           4.380           0.314           4.315
   290           2.441           0.966           3.301           0.289           4.411           0.345           4.341
   300           2.556           0.965           3.454           0.291           4.443           0.378           4.369
   310           2.668           0.964           3.603           0.293           4.477           0.413           4.399
   320           2.777           0.964           3.747           0.296           4.512           0.449           4.432
   330           2.882           0.963           3.888           0.298           4.549           0.486           4.466
   340           2.984           0.963           4.023           0.301           4.587           0.525           4.503
   350           3.082           0.963           4.154           0.303           4.626           0.564           4.541
   360           3.176           0.963           4.281           0.306           4.666           0.605           4.581
   370           3.267           0.962           4.404           0.309           4.708           0.647           4.622
   380           3.355           0.962           4.522           0.311           4.750           0.691           4.665
   390           3.439           0.962           4.636           0.314           4.794           0.735           4.708
   400           3.521           0.963           4.745           0.317           4.839           0.781           4.754
   410           3.599           0.963           4.851           0.320           4.885           0.827           4.800
   420           3.674           0.963           4.953           0.324           4.932           0.874           4.847
   430           3.746           0.963           5.050           0.327           4.980           0.923           4.896
   440           3.815           0.963           5.145           0.330           5.029           0.972           4.945
   450           3.882           0.963           5.235           0.333           5.079           1.022           4.996
   460           3.946           0.963           5.323           0.337           5.129           1.073           5.047
   470           4.008           0.963           5.407           0.340           5.180           1.125           5.099
   480           4.067           0.964           5.487           0.344           5.233           1.178           5.152
   490           4.124           0.964           5.565           0.347           5.286           1.231           5.206
   500           4.178           0.964           5.640           0.351           5.339           1.285           5.261
   510           4.231           0.964           5.712           0.354           5.393           1.339           5.316
   520           4.282           0.964           5.781           0.358           5.449           1.395           5.372
   530           4.330           0.964           5.847           0.362           5.504           1.451           5.428
   540           4.377           0.965           5.912           0.366           5.560           1.507           5.486
   550           4.422           0.965           5.973           0.369           5.617           1.565           5.543
   560           4.465           0.965           6.033           0.373           5.675           1.622           5.602
   570           4.507           0.965           6.090           0.377           5.733           1.681           5.661
   580           4.547           0.965           6.145           0.381           5.792           1.740           5.720
   590           4.586           0.965           6.198           0.385           5.851           1.799           5.780
   600           4.623           0.965           6.249           0.389           5.910           1.859           5.841
   610           4.659           0.966           6.299           0.393           5.970           1.919           5.902
   620           4.693           0.966           6.346           0.397           6.031           1.980           5.963
   630           4.726           0.966           6.392           0.401           6.092           2.041           6.025
   640           4.758           0.966           6.437           0.405           6.153           2.103           6.087
   650           4.789           0.966           6.479           0.409           6.215           2.165           6.150
   660           4.819           0.966           6.520           0.413           6.277           2.227           6.213
   670           4.848           0.966           6.560           0.417           6.340           2.290           6.276
   680           4.876           0.966           6.599           0.422           6.403           2.353           6.340
   690           4.903           0.967           6.636           0.426           6.466           2.417           6.404
   700           4.929           0.967           6.672           0.430           6.530           2.481           6.468
   710           4.954           0.967           6.706           0.434           6.594           2.545           6.533
   720           4.978           0.967           6.740           0.439           6.658           2.609           6.598
   730           5.001           0.967           6.772           0.443           6.723           2.674           6.664
   740           5.024           0.967           6.804           0.447           6.788           2.739           6.729
   750           5.046           0.967           6.834           0.452           6.853           2.805           6.795
   760           5.067           0.967           6.863           0.456           6.919           2.870           6.861
   770           5.088           0.967           6.892           0.460           6.985           2.936           6.928
   780           5.107           0.967           6.919           0.465           7.051           3.003           6.995
   790           5.127           0.968           6.946           0.469           7.117           3.069           7.062
   800           5.145           0.968           6.972           0.473           7.184           3.136           7.129
   810           5.163           0.968           6.997           0.478           7.251           3.203           7.196
   820           5.181           0.968           7.021           0.482           7.318           3.270           7.264
   830           5.198           0.968           7.044           0.487           7.385           3.338           7.332
   840           5.214           0.968           7.067           0.491           7.453           3.405           7.400
   850           5.230           0.968           7.089           0.496           7.521           3.473           7.468
   860           5.245           0.968           7.111           0.500           7.589           3.541           7.537
   870           5.260           0.968           7.131           0.505           7.657           3.610           7.606
   880           5.275           0.968           7.152           0.509           7.725           3.678           7.675
   890           5.289           0.968           7.171           0.514           7.794           3.747           7.744
   900           5.303           0.968           7.190           0.519           7.863           3.816           7.813
   910           5.316           0.968           7.209           0.523           7.931           3.885           7.882
   920           5.329           0.968           7.227           0.528           8.001           3.954           7.952
   930           5.342           0.968           7.244           0.532           8.070           4.023           8.022
   940           5.354           0.969           7.261           0.537           8.139           4.093           8.092
   950           5.366           0.969           7.278           0.542           8.209           4.162           8.162
   960           5.377           0.969           7.294           0.546           8.279           4.232           8.232
   970           5.388           0.969           7.309           0.551           8.349           4.302           8.302
   980           5.399           0.969           7.325           0.555           8.419           4.372           8.373
   990           5.410           0.969           7.339           0.560           8.489           4.443           8.443
  1000           5.420           0.969           7.354           0.565           8.559           4.513           8.514
  1010           5.430           0.969           7.368           0.569           8.630           4.584           8.585
  1020           5.440           0.969           7.381           0.574           8.700           4.654           8.656
  1030           5.450           0.969           7.395           0.579           8.771           4.725           8.727
  1040           5.459           0.969           7.408           0.584           8.842           4.796           8.799
  1050           5.468           0.969           7.420           0.588           8.913           4.867           8.870
  1060           5.477           0.969           7.433           0.593           8.984           4.938           8.941
  1070           5.485           0.969           7.445           0.598           9.055           5.010           9.013
  1080           5.494           0.969           7.456           0.602           9.127           5.081           9.085
  1090           5.502           0.969           7.468           0.607           9.198           5.152           9.157
  1100           5.510           0.969           7.479           0.612           9.270           5.224           9.228
  1110           5.518           0.969           7.490           0.617           9.341           5.296           9.300
  1120           5.525           0.969           7.500           0.621           9.413           5.368           9.373
  1130           5.533           0.969           7.510           0.626           9.485           5.439           9.445
  1140           5.540           0.969           7.520           0.631           9.557           5.511           9.517
  1150           5.547           0.969           7.530           0.636           9.629           5.584           9.589
  1160           5.554           0.969           7.540           0.640           9.701           5.656           9.662
  1170           5.561           0.970           7.549           0.645           9.773           5.728           9.734
  1180           5.567           0.970           7.558           0.650           9.846           5.800           9.807
  1190           5.574           0.970           7.567           0.655           9.918           5.873           9.880
  1200           5.580           0.970           7.576           0.660           9.991           5.945           9.953
  1210           5.586           0.970           7.585           0.664          10.063           6.018          10.026
  1220           5.592           0.970           7.593           0.669          10.136           6.091          10.098
  1230           5.598           0.970           7.601           0.674          10.209           6.164          10.172
  1240           5.603           0.970           7.609           0.679          10.281           6.236          10.245
  1250           5.609           0.970           7.617           0.684          10.354           6.309          10.318
  1260           5.614           0.970           7.624           0.689          10.427           6.382          10.391
  1270           5.620           0.970           7.632           0.693          10.500           6.455          10.464
  1280           5.625           0.970           7.639           0.698          10.573           6.529          10.538
  1290           5.630           0.970           7.646           0.703          10.647           6.602          10.611
  1300           5.635           0.970           7.653           0.708          10.720           6.675          10.685
  1310           5.640           0.970           7.660           0.713          10.793           6.748          10.758
  1320           5.645           0.970           7.667           0.718          10.867           6.822          10.832
  1330           5.650           0.970           7.673           0.723          10.940           6.895          10.906
  1340           5.654           0.970           7.680           0.727          11.013           6.969          10.979
  1350           5.659           0.970           7.686           0.732          11.087           7.042          11.053
  1360           5.663           0.970           7.692           0.737          11.161           7.116          11.127
  1370           5.667           0.970           7.698           0.742          11.234           7.190          11.201
  1380           5.672           0.970           7.704           0.747          11.308           7.264          11.275
  1390           5.676           0.970           7.710           0.752          11.382           7.337          11.349
  1400           5.680           0.970           7.716           0.757          11.456           7.411          11.423
  1410           5.684           0.970           7.721           0.762          11.530           7.485          11.497
  1420           5.688           0.970           7.727           0.767          11.604           7.559          11.571
  1430           5.691           0.970           7.732           0.771          11.678           7.633          11.646
  1440           5.695           0.970           7.737           0.776          11.752           7.707          11.720
  1450           5.699           0.970           7.742           0.781          11.826           7.781          11.794
  1460           5.702           0.970           7.747           0.786          11.900           7.856          11.869
  1470           5.706           0.970           7.752           0.791          11.974           7.930          11.943
  1480           5.709           0.970           7.757           0.796          12.048           8.004          12.017
  1490           5.713           0.970           7.762           0.801          12.123           8.078          12.092
  1500           5.716           0.970           7.766           0.806          12.197           8.153          12.166
  1510           5.719           0.970           7.771           0.811          12.271           8.227          12.241
  1520           5.723           0.970           7.775           0.816          12.346           8.302          12.316
  1530           5.726           0.970           7.780           0.821          12.420           8.376          12.390
  1540           5.729           0.970           7.784           0.826          12.495           8.451          12.465
  1550           5.732           0.970           7.788           0.831          12.569           8.525          12.540
  1560           5.735           0.970           7.792           0.835          12.644           8.600          12.615
  1570           5.738           0.970           7.797           0.840          12.719           8.675          12.689
  1580           5.741           0.970           7.801           0.845          12.793           8.749          12.764
  1590           5.743           0.970           7.805           0.850          12.868           8.824          12.839
  1600           5.746           0.970           7.808           0.855          12.943           8.899          12.914
  1610           5.749           0.970           7.812           0.860          13.018           8.974          12.989
  1620           5.752           0.970           7.816           0.865          13.092           9.048          13.064
  1630           5.754           0.970           7.820           0.870          13.167           9.123          13.139
  1640           5.757           0.970           7.823           0.875          13.242           9.198          13.214
