# Phonon frequencies in cm-1
    1           0.000           0.000           0.000         515.351         515.351         515.351
    2           3.126           3.126           5.177         515.334         515.334         515.346
    3           6.251           6.251          10.353         515.285         515.285         515.332
    4           9.374           9.374          15.528         515.202         515.202         515.309
    5          12.493          12.493          20.701         515.087         515.087         515.275
    6          15.607          15.607          25.870         514.939         514.939         515.233
    7          18.715          18.715          31.036         514.759         514.759         515.180
    8          21.816          21.816          36.197         514.546         514.546         515.117
    9          24.908          24.908          41.354         514.301         514.301         515.044
   10          27.991          27.991          46.504         514.025         514.025         514.961
   11          31.062          31.062          51.647         513.717         513.717         514.866
   12          34.121          34.121          56.783         513.378         513.378         514.761
   13          37.166          37.166          61.911         513.009         513.009         514.643
   14          40.195          40.195          67.030         512.610         512.610         514.514
   15          43.208          43.208          72.139         512.181         512.181         514.373
   16          46.203          46.203          77.238         511.724         511.724         514.219
   17          49.179          49.179          82.325         511.238         511.238         514.051
   18          52.134          52.134          87.401         510.725         510.725         513.870
   19          55.066          55.066          92.463         510.184         510.184         513.675
   20          57.974          57.974          97.513         509.618         509.618         513.465
   21          60.856          60.856         102.548         509.027         509.027         513.239
   22          63.711          63.711         107.568         508.411         508.411         512.998
   23          66.537          66.537         112.572         507.772         507.772         512.740
   24          69.333          69.333         117.560         507.111         507.111         512.466
   25          72.096          72.096         122.531         506.427         506.427         512.173
   26          74.825          74.825         127.483         505.724         505.724         511.863
   27          77.518          77.518         132.418         505.001         505.001         511.534
   28          80.174          80.174         137.332         504.261         504.261         511.185
   29          82.790          82.790         142.227         503.503         503.503         510.817
   30          85.364          85.364         147.100         502.730         502.730         510.428
   31          87.896          87.896         151.952         501.943         501.943         510.018
   32          90.383          90.383         156.782         501.142         501.142         509.586
   33          92.822          92.822         161.588         500.330         500.330         509.132
   34          95.213          95.213         166.371         499.508         499.508         508.655
   35          97.553          97.553         171.130         498.677         498.677         508.154
   36          99.841          99.841         175.863         497.839         497.839         507.630
   37         102.074         102.074         180.571         496.995         496.995         507.081
   38         104.251         104.251         185.252         496.147         496.147         506.507
   39         106.370         106.370         189.906         495.297         495.297         505.907
   40         108.430         108.430         194.532         494.445         494.445         505.281
   41         110.427         110.427         199.129         493.594         493.594         504.629
   42         112.362         112.362         203.698         492.745         492.745         503.950
   43         114.232         114.232         208.237         491.900         491.900         503.244
   44         116.035         116.035         212.746         491.060         491.060         502.510
   45         117.771         117.771         217.224         490.227         490.227         501.748
   46         119.437         119.437         221.671         489.402         489.402         500.957
   47         121.033         121.033         226.086         488.587         488.587         500.137
   48         122.558         122.558         230.469         487.784         487.784         499.289
   49         124.009         124.009         234.818         486.993         486.993         498.411
   50         125.387         125.387         239.135         486.216         486.216         497.503
   51         126.691         126.691         243.417         485.455         485.455         496.565
   52         127.919         127.919         247.665         484.711         484.711         495.597
   53         129.072         129.072         251.879         483.985         483.985         494.599
   54         130.148         130.148         256.057         483.278         483.278         493.571
   55         131.148         131.148         260.200         482.591         482.591         492.511
   56         132.073         132.073         264.307         481.925         481.925         491.421
   57         132.921         132.921         268.378         481.282         481.282         490.300
   58         133.693         133.693         272.413         480.661         480.661         489.149
   59         134.391         134.391         276.410         480.063         480.063         487.966
   60         135.014         135.014         280.371         479.489         479.489         486.752
   61         135.563         135.563         284.295         478.940         478.940         485.507
   62         136.041         136.041         288.181         478.416         478.416         484.231
   63         136.447         136.447         292.029         477.917         477.917         482.924
   64         136.785         136.785         295.840         477.443         477.443         481.586
   65         137.054         137.054         299.613         476.994         476.994         480.217
   66         137.259         137.259         303.348         476.570         476.570         478.817
   67         137.400         137.400         307.044         476.171         476.171         477.386
   68         137.480         137.480         310.703         475.797         475.797         475.924
   69         137.502         137.502         314.324         474.432         475.447         475.447
   70         137.468         137.468         317.906         472.908         475.121         475.121
   71         137.382         137.382         321.450         471.355         474.818         474.818
   72         137.246         137.246         324.956         469.770         474.538         474.538
   73         137.064         137.064         328.424         468.156         474.279         474.279
   74         136.839         136.839         331.854         466.511         474.042         474.042
   75         136.575         136.575         335.246         464.836         473.825         473.825
   76         136.275         136.275         338.600         463.131         473.628         473.628
   77         135.943         135.943         341.917         461.395         473.449         473.449
   78         135.583         135.583         345.196         459.630         473.287         473.287
   79         135.200         135.200         348.438         457.835         473.142         473.142
   80         134.796         134.796         351.643         456.010         473.013         473.013
   81         134.376         134.376         354.811         454.156         472.898         472.898
   82         133.944         133.944         357.943         452.272         472.797         472.797
   83         133.504         133.504         361.037         450.358         472.708         472.708
   84         133.060         133.060         364.096         448.414         472.631         472.631
   85         132.616         132.616         367.119         446.441         472.564         472.564
   86         132.176         132.176         370.106         444.439         472.506         472.506
   87         131.744         131.744         373.058         442.407         472.458         472.458
   88         131.324         131.324         375.974         440.345         472.416         472.416
   89         130.918         130.918         378.856         438.254         472.382         472.382
   90         130.531         130.531         381.703         436.133         472.354         472.354
   91         130.166         130.166         384.516         433.983         472.330         472.330
   92         129.826         129.826         387.295         431.803         472.311         472.311
   93         129.513         129.513         390.040         429.593         472.297         472.297
   94         129.231         129.231         392.752         427.353         472.285         472.285
   95         128.982         128.982         395.430         425.082         472.276         472.276
   96         128.767         128.767         398.076         422.782         472.269         472.269
   97         128.589         128.589         400.689         420.451         472.264         472.264
   98         128.449         128.449         403.270         418.090         472.260         472.260
   99         128.348         128.348         405.819         415.698         472.258         472.258
  100         128.287         128.287         408.336         413.275         472.256         472.256
  101         128.266         128.266         410.821         410.821         472.256         472.256
  102         128.329         128.329         410.772         410.772         472.269         472.269
  103         128.519         128.519         410.626         410.626         472.306         472.306
  104         128.833         128.833         410.384         410.384         472.368         472.368
  105         129.271         129.271         410.046         410.046         472.453         472.453
  106         129.831         129.831         409.615         409.615         472.562         472.562
  107         130.510         130.510         409.092         409.092         472.691         472.691
  108         131.306         131.306         408.479         408.479         472.840         472.840
  109         132.215         132.215         407.780         407.780         473.008         473.008
  110         133.232         133.232         406.996         406.996         473.192         473.192
  111         134.355         134.355         406.132         406.132         473.390         473.390
  112         135.579         135.579         405.191         405.191         473.601         473.601
  113         136.898         136.898         404.177         404.177         473.822         473.822
  114         138.308         138.308         403.092         403.092         474.052         474.052
  115         139.803         139.803         401.941         401.941         474.290         474.290
  116         141.377         141.377         400.727         400.727         474.532         474.532
  117         143.026         143.026         399.456         399.456         474.778         474.778
  118         144.742         144.742         398.130         398.130         475.026         475.026
  119         146.520         146.520         396.754         396.754         475.274         475.274
  120         148.355         148.355         395.332         395.332         475.522         475.522
  121         150.239         150.239         393.869         393.869         475.767         475.767
  122         152.166         152.166         392.369         392.369         476.010         476.010
  123         154.130         154.130         390.836         390.836         476.248         476.248
  124         156.124         156.124         389.275         389.275         476.482         476.482
  125         158.142         158.142         387.691         387.691         476.709         476.709
  126         160.177         160.177         386.089         386.089         476.931         476.931
  127         162.222         162.222         384.473         384.473         477.145         477.145
  128         164.270         164.270         382.850         382.850         477.352         477.352
  129         166.314         166.314         381.224         381.224         477.551         477.551
  130         168.347         168.347         379.601         379.601         477.742         477.742
  131         170.361         170.361         377.987         377.987         477.925         477.925
  132         172.350         172.350         376.388         376.388         478.098         478.098
  133         174.305         174.305         374.810         374.810         478.263         478.263
  134         176.219         176.219         373.260         373.260         478.419         478.419
  135         178.083         178.083         371.744         371.744         478.566         478.566
  136         179.891         179.891         370.269         370.269         478.704         478.704
  137         181.634         181.634         368.842         368.842         478.833         478.833
  138         183.303         183.303         367.471         367.471         478.952         478.952
  139         184.891         184.891         366.162         366.162         479.063         479.063
  140         186.390         186.390         364.924         364.924         479.164         479.164
  141         187.791         187.791         363.762         363.762         479.256         479.256
  142         189.087         189.087         362.685         362.685         479.339         479.339
  143         190.270         190.270         361.699         361.699         479.414         479.414
  144         191.333         191.333         360.811         360.811         479.479         479.479
  145         192.270         192.270         360.028         360.028         479.536         479.536
  146         193.073         193.073         359.354         359.354         479.583         479.583
  147         193.739         193.739         358.796         358.796         479.622         479.622
  148         194.261         194.261         358.357         358.357         479.653         479.653
  149         194.637         194.637         358.040         358.040         479.674         479.674
  150         194.864         194.864         357.850         357.850         479.687         479.687
  151         194.939         194.939         357.786         357.786         479.692         479.692
  152         194.864         194.864         357.850         357.850         479.687         479.687
  153         194.637         194.637         358.040         358.040         479.674         479.674
  154         194.261         194.261         358.357         358.357         479.653         479.653
  155         193.739         193.739         358.796         358.796         479.622         479.622
  156         193.073         193.073         359.354         359.354         479.583         479.583
  157         192.270         192.270         360.028         360.028         479.536         479.536
  158         191.333         191.333         360.811         360.811         479.479         479.479
  159         190.270         190.270         361.699         361.699         479.414         479.414
  160         189.087         189.087         362.685         362.685         479.339         479.339
  161         187.791         187.791         363.762         363.762         479.256         479.256
  162         186.390         186.390         364.924         364.924         479.164         479.164
  163         184.891         184.891         366.162         366.162         479.063         479.063
  164         183.303         183.303         367.471         367.471         478.952         478.952
  165         181.634         181.634         368.842         368.842         478.833         478.833
  166         179.891         179.891         370.269         370.269         478.704         478.704
  167         178.083         178.083         371.744         371.744         478.566         478.566
  168         176.219         176.219         373.260         373.260         478.419         478.419
  169         174.305         174.305         374.810         374.810         478.263         478.263
  170         172.350         172.350         376.388         376.388         478.098         478.098
  171         170.361         170.361         377.987         377.987         477.925         477.925
  172         168.347         168.347         379.601         379.601         477.742         477.742
  173         166.314         166.314         381.224         381.224         477.551         477.551
  174         164.270         164.270         382.850         382.850         477.352         477.352
  175         162.222         162.222         384.473         384.473         477.145         477.145
  176         160.177         160.177         386.089         386.089         476.931         476.931
  177         158.142         158.142         387.691         387.691         476.709         476.709
  178         156.124         156.124         389.275         389.275         476.482         476.482
  179         154.130         154.130         390.836         390.836         476.248         476.248
  180         152.166         152.166         392.369         392.369         476.010         476.010
  181         150.239         150.239         393.869         393.869         475.767         475.767
  182         148.355         148.355         395.332         395.332         475.522         475.522
  183         146.520         146.520         396.754         396.754         475.274         475.274
  184         144.742         144.742         398.130         398.130         475.026         475.026
  185         143.026         143.026         399.456         399.456         474.778         474.778
  186         141.377         141.377         400.727         400.727         474.532         474.532
  187         139.803         139.803         401.941         401.941         474.290         474.290
  188         138.308         138.308         403.092         403.092         474.052         474.052
  189         136.898         136.898         404.177         404.177         473.822         473.822
  190         135.579         135.579         405.191         405.191         473.601         473.601
  191         134.355         134.355         406.132         406.132         473.390         473.390
  192         133.232         133.232         406.996         406.996         473.192         473.192
  193         132.215         132.215         407.780         407.780         473.008         473.008
  194         131.306         131.306         408.479         408.479         472.840         472.840
  195         130.510         130.510         409.092         409.092         472.691         472.691
