# Phonon frequencies in cm-1
    1           0.000           0.000           0.000         515.351         515.351         515.351
    2           3.126           3.126           5.177         515.334         515.334         515.346
    3           6.251           6.251          10.353         515.285         515.285         515.332
    4           9.374           9.374          15.528         515.202         515.202         515.309
    5          12.493          12.493          20.701         515.087         515.087         515.275
    6          15.607          15.607          25.870         514.939         514.939         515.233
    7          18.715          18.715          31.036         514.759         514.759         515.180
    8          21.816          21.816          36.197         514.546         514.546         515.117
    9          24.908          24.908          41.354         514.301         514.301         515.044
   10          27.991          27.991          46.504         514.025         514.025         514.961
   11          31.062          31.062          51.647         513.717         513.717         514.866
   12          34.121          34.121          56.783         513.378         513.378         514.761
   13          37.166          37.166          61.911         513.009         513.009         514.643
   14          40.195          40.195          67.030         512.610         512.610         514.514
   15          43.208          43.208          72.139         512.181         512.181         514.373
   16          46.203          46.203          77.238         511.724         511.724         514.219
   17          49.179          49.179          82.325         511.238         511.238         514.051
   18          52.134          52.134          87.401         510.725         510.725         513.870
   19          55.066          55.066          92.463         510.184         510.184         513.675
   20          57.974          57.974          97.513         509.618         509.618         513.465
   21          60.856          60.856         102.548         509.027         509.027         513.239
   22          63.711          63.711         107.568         508.411         508.411         512.998
   23          66.537          66.537         112.572         507.772         507.772         512.740
   24          69.333          69.333         117.560         507.111         507.111         512.466
   25          72.096          72.096         122.531         506.427         506.427         512.173
   26          74.825          74.825         127.483         505.724         505.724         511.863
   27          77.518          77.518         132.418         505.001         505.001         511.534
   28          80.174          80.174         137.332         504.261         504.261         511.185
   29          82.790          82.790         142.227         503.503         503.503         510.817
   30          85.364          85.364         147.100         502.730         502.730         510.428
   31          87.896          87.896         151.952         501.943         501.943         510.018
   32          90.383          90.383         156.782         501.142         501.142         509.586
   33          92.822          92.822         161.588         500.330         500.330         509.132
   34          95.213          95.213         166.371         499.508         499.508         508.655
   35          97.553          97.553         171.130         498.677         498.677         508.154
   36          99.841          99.841         175.863         497.839         497.839         507.630
   37         102.074         102.074         180.571         496.995         496.995         507.081
   38         104.251         104.251         185.252         496.147         496.147         506.507
   39         106.370         106.370         189.906         495.297         495.297         505.907
   40         108.430         108.430         194.532         494.445         494.445         505.281
   41         110.427         110.427         199.129         493.594         493.594         504.629
   42         112.362         112.362         203.698         492.745         492.745         503.950
   43         114.232         114.232         208.237         491.900         491.900         503.244
   44         116.035         116.035         212.746         491.060         491.060         502.510
   45         117.771         117.771         217.224         490.227         490.227         501.748
   46         119.437         119.437         221.671         489.402         489.402         500.957
   47         121.033         121.033         226.086         488.587         488.587         500.137
   48         122.558         122.558         230.469         487.784         487.784         499.289
   49         124.009         124.009         234.818         486.993         486.993         498.411
   50         125.387         125.387         239.135         486.216         486.216         497.503
   51         126.691         126.691         243.417         485.455         485.455         496.565
   52         127.919         127.919         247.665         484.711         484.711         495.597
   53         129.072         129.072         251.879         483.985         483.985         494.599
   54         130.148         130.148         256.057         483.278         483.278         493.571
   55         131.148         131.148         260.200         482.591         482.591         492.511
   56         132.073         132.073         264.307         481.925         481.925         491.421
   57         132.921         132.921         268.378         481.282         481.282         490.300
   58         133.693         133.693         272.413         480.661         480.661         489.149
   59         134.391         134.391         276.410         480.063         480.063         487.966
   60         135.014         135.014         280.371         479.489         479.489         486.752
   61         135.563         135.563         284.295         478.940         478.940         485.507
   62         136.041         136.041         288.181         478.416         478.416         484.231
   63         136.447         136.447         292.029         477.917         477.917         482.924
   64         136.785         136.785         295.840         477.443         477.443         481.586
   65         137.054         137.054         299.613         476.994         476.994         480.217
   66         137.259         137.259         303.348         476.570         476.570         478.817
   67         137.400         137.400         307.044         476.171         476.171         477.386
   68         137.480         137.480         310.703         475.797         475.797         475.924
   69         137.502         137.502         314.324         474.432         475.447         475.447
   70         137.468         137.468         317.906         472.908         475.121         475.121
   71         137.382         137.382         321.450         471.355         474.818         474.818
   72         137.246         137.246         324.956         469.770         474.538         474.538
   73         137.064         137.064         328.424         468.156         474.279         474.279
   74         136.839         136.839         331.854         466.511         474.042         474.042
   75         136.575         136.575         335.246         464.836         473.825         473.825
   76         136.275         136.275         338.600         463.131         473.628         473.628
   77         135.943         135.943         341.917         461.395         473.449         473.449
   78         135.583         135.583         345.196         459.630         473.287         473.287
   79         135.200         135.200         348.438         457.835         473.142         473.142
   80         134.796         134.796         351.643         456.010         473.013         473.013
   81         134.376         134.376         354.811         454.156         472.898         472.898
   82         133.944         133.944         357.943         452.272         472.797         472.797
   83         133.504         133.504         361.037         450.358         472.708         472.708
   84         133.060         133.060         364.096         448.414         472.631         472.631
   85         132.616         132.616         367.119         446.441         472.564         472.564
   86         132.176         132.176         370.106         444.439         472.506         472.506
   87         131.744         131.744         373.058         442.407         472.458         472.458
   88         131.324         131.324         375.974         440.345         472.416         472.416
   89         130.918         130.918         378.856         438.254         472.382         472.382
   90         130.531         130.531         381.703         436.133         472.354         472.354
   91         130.166         130.166         384.516         433.983         472.330         472.330
   92         129.826         129.826         387.295         431.803         472.311         472.311
   93         129.513         129.513         390.040         429.593         472.297         472.297
   94         129.231         129.231         392.752         427.353         472.285         472.285
   95         128.982         128.982         395.430         425.082         472.276         472.276
   96         128.767         128.767         398.076         422.782         472.269         472.269
   97         128.589         128.589         400.689         420.451         472.264         472.264
   98         128.449         128.449         403.270         418.090         472.260         472.260
   99         128.348         128.348         405.819         415.698         472.258         472.258
  100         128.287         128.287         408.336         413.275         472.256         472.256
  101         128.266         128.266         410.821         410.821         472.256         472.256
  102         128.332         128.332         410.770         410.770         472.269         472.269
  103         128.529         128.529         410.618         410.618         472.308         472.308
  104         128.856         128.856         410.366         410.366         472.372         472.372
  105         129.312         129.312         410.015         410.015         472.461         472.461
  106         129.895         129.895         409.566         409.566         472.574         472.574
  107         130.601         130.601         409.021         409.021         472.708         472.708
  108         131.429         131.429         408.384         408.384         472.863         472.863
  109         132.373         132.373         407.657         407.657         473.037         473.037
  110         133.431         133.431         406.844         406.844         473.227         473.227
  111         134.597         134.597         405.947         405.947         473.432         473.432
  112         135.867         135.867         404.970         404.970         473.650         473.650
  113         137.235         137.235         403.917         403.917         473.878         473.878
  114         138.696         138.696         402.793         402.793         474.115         474.115
  115         140.245         140.245         401.600         401.600         474.358         474.358
  116         141.874         141.874         400.344         400.344         474.607         474.607
  117         143.579         143.579         399.029         399.029         474.859         474.859
  118         145.352         145.352         397.658         397.658         475.112         475.112
  119         147.188         147.188         396.237         396.237         475.365         475.365
  120         149.080         149.080         394.770         394.770         475.617         475.617
  121         151.020         151.020         393.261         393.261         475.867         475.867
  122         153.003         153.003         391.715         391.715         476.113         476.113
  123         155.022         155.022         390.138         390.138         476.354         476.354
  124         157.069         157.069         388.534         388.534         476.589         476.589
  125         159.137         159.137         386.908         386.908         476.819         476.819
  126         161.219         161.219         385.266         385.266         477.041         477.041
  127         163.308         163.308         383.612         383.612         477.256         477.256
  128         165.397         165.397         381.954         381.954         477.463         477.463
  129         167.477         167.477         380.296         380.296         477.661         477.661
  130         169.541         169.541         378.644         378.644         477.851         477.851
  131         171.582         171.582         377.006         377.006         478.032         478.032
  132         173.591         173.591         375.387         375.387         478.204         478.204
  133         175.560         175.560         373.794         373.794         478.366         478.366
  134         177.480         177.480         372.234         372.234         478.519         478.519
  135         179.344         179.344         370.715         370.715         478.663         478.663
  136         181.143         181.143         369.244         369.244         478.797         478.797
  137         182.868         182.868         367.829         367.829         478.921         478.921
  138         184.510         184.510         366.477         366.477         479.036         479.036
  139         186.062         186.062         365.195         365.195         479.142         479.142
  140         187.513         187.513         363.993         363.993         479.238         479.238
  141         188.857         188.857         362.876         362.876         479.325         479.325
  142         190.085         190.085         361.854         361.854         479.402         479.402
  143         191.189         191.189         360.932         360.932         479.470         479.470
  144         192.162         192.162         360.118         360.118         479.529         479.529
  145         192.998         192.998         359.418         359.418         479.579         479.579
  146         193.690         193.690         358.837         358.837         479.619         479.619
  147         194.233         194.233         358.380         358.380         479.651         479.651
  148         194.625         194.625         358.051         358.051         479.674         479.674
  149         194.861         194.861         357.852         357.852         479.687         479.687
  150         194.939         194.939         357.786         357.786         479.692         479.692
  151         194.861         194.861         357.852         357.852         479.687         479.687
  152         194.625         194.625         358.051         358.051         479.674         479.674
  153         194.233         194.233         358.380         358.380         479.651         479.651
  154         193.690         193.690         358.837         358.837         479.619         479.619
  155         192.998         192.998         359.418         359.418         479.579         479.579
  156         192.162         192.162         360.118         360.118         479.529         479.529
  157         191.189         191.189         360.932         360.932         479.470         479.470
  158         190.085         190.085         361.854         361.854         479.402         479.402
  159         188.857         188.857         362.876         362.876         479.325         479.325
  160         187.513         187.513         363.993         363.993         479.238         479.238
  161         186.062         186.062         365.195         365.195         479.142         479.142
  162         184.510         184.510         366.477         366.477         479.036         479.036
  163         182.868         182.868         367.829         367.829         478.921         478.921
  164         181.143         181.143         369.244         369.244         478.797         478.797
  165         179.344         179.344         370.715         370.715         478.663         478.663
  166         177.480         177.480         372.234         372.234         478.519         478.519
  167         175.560         175.560         373.794         373.794         478.366         478.366
  168         173.591         173.591         375.387         375.387         478.204         478.204
  169         171.582         171.582         377.006         377.006         478.032         478.032
  170         169.541         169.541         378.644         378.644         477.851         477.851
  171         167.477         167.477         380.296         380.296         477.661         477.661
  172         165.397         165.397         381.954         381.954         477.463         477.463
  173         163.308         163.308         383.612         383.612         477.256         477.256
  174         161.219         161.219         385.266         385.266         477.041         477.041
  175         159.137         159.137         386.908         386.908         476.819         476.819
  176         157.069         157.069         388.534         388.534         476.589         476.589
  177         155.022         155.022         390.138         390.138         476.354         476.354
  178         153.003         153.003         391.715         391.715         476.113         476.113
  179         151.020         151.020         393.261         393.261         475.867         475.867
  180         149.080         149.080         394.770         394.770         475.617         475.617
  181         147.188         147.188         396.237         396.237         475.365         475.365
  182         145.352         145.352         397.658         397.658         475.112         475.112
  183         143.579         143.579         399.029         399.029         474.859         474.859
  184         141.874         141.874         400.344         400.344         474.607         474.607
  185         140.245         140.245         401.600         401.600         474.358         474.358
  186         138.696         138.696         402.793         402.793         474.115         474.115
  187         137.235         137.235         403.917         403.917         473.878         473.878
  188         135.867         135.867         404.970         404.970         473.650         473.650
  189         134.597         134.597         405.947         405.947         473.432         473.432
  190         133.431         133.431         406.844         406.844         473.227         473.227
  191         132.373         132.373         407.657         407.657         473.037         473.037
  192         131.429         131.429         408.384         408.384         472.863         472.863
  193         130.601         130.601         409.021         409.021         472.708         472.708
  194         129.895         129.895         409.566         409.566         472.574         472.574
  195         129.312         129.312         410.015         410.015         472.461         472.461
