# Phonon frequencies in cm-1
    1           0.000           0.000           0.000         349.596         349.596         349.596         441.326         441.326         441.326
    2           1.377           1.377           3.671         349.570         349.570         349.702         441.306         441.334         441.334
    3           2.754           2.754           7.338         349.490         349.490         350.020         441.245         441.360         441.360
    4           4.131           4.131          11.000         349.358         349.358         350.548         441.143         441.402         441.402
    5           5.509           5.509          14.653         349.174         349.174         351.285         441.001         441.461         441.461
    6           6.888           6.888          18.295         348.936         348.936         352.230         440.817         441.537         441.537
    7           8.268           8.268          21.922         348.647         348.647         353.377         440.592         441.630         441.630
    8           9.650           9.650          25.533         348.305         348.305         354.726         440.325         441.739         441.739
    9          11.034          11.034          29.124         347.912         347.912         356.270         440.016         441.864         441.864
   10          12.419          12.419          32.694         347.468         347.468         358.006         439.663         442.006         442.006
   11          13.806          13.806          36.240         346.972         346.972         359.929         439.267         442.163         442.163
   12          15.196          15.196          39.761         346.426         346.426         362.032         438.826         442.336         442.336
   13          16.587          16.587          43.254         345.830         345.830         364.310         438.340         442.525         442.525
   14          17.982          17.982          46.718         345.184         345.184         366.756         437.808         442.729         442.729
   15          19.378          19.378          50.152         344.489         344.489         369.364         437.229         442.947         442.947
   16          20.778          20.778          53.554         343.745         343.745         372.126         436.602         443.180         443.180
   17          22.180          22.180          56.923         342.954         342.954         375.035         435.926         443.427         443.427
   18          23.585          23.585          60.259         342.116         342.116         378.083         435.200         443.688         443.688
   19          24.992          24.992          63.559         341.231         341.231         381.263         434.423         443.963         443.963
   20          26.402          26.402          66.825         340.300         340.300         384.567         433.594         444.251         444.251
   21          27.815          27.815          70.055         339.324         339.324         387.987         432.712         444.551         444.551
   22          29.231          29.231          73.249         338.304         338.304         391.514         431.775         444.864         444.864
   23          30.649          30.649          76.406         337.240         337.240         395.141         430.783         445.189         445.189
   24          32.069          32.069          79.526         336.134         336.134         398.859         429.734         445.526         445.526
   25          33.492          33.492          82.610         334.985         334.985         402.661         428.627         445.874         445.874
   26          34.917          34.917          85.658         333.796         333.796         406.539         427.462         446.233         446.233
   27          36.343          36.343          88.668         332.568         332.568         410.484         426.235         446.602         446.602
   28          37.771          37.771          91.641         331.300         331.300         414.489         424.948         446.981         446.981
   29          39.201          39.201          94.578         329.994         329.994         418.547         423.598         447.369         447.369
   30          40.632          40.632          97.479         328.651         328.651         422.185         422.650         447.767         447.767
   31          42.063          42.063         100.343         327.272         327.272         420.707         426.791         448.173         448.173
   32          43.495          43.495         103.171         325.858         325.858         419.163         430.963         448.588         448.588
   33          44.927          44.927         105.963         324.410         324.410         417.553         435.158         449.011         449.011
   34          46.359          46.359         108.720         322.930         322.930         415.876         439.371         449.440         449.440
   35          47.790          47.790         111.440         321.418         321.418         414.130         443.596         449.877         449.877
   36          49.220          49.220         114.125         319.875         319.875         412.316         447.825         450.321         450.321
   37          50.649          50.649         116.775         318.304         318.304         410.431         450.770         450.770         452.053
   38          52.076          52.076         119.390         316.704         316.704         408.477         451.225         451.225         456.274
   39          53.500          53.500         121.970         315.078         315.078         406.451         451.685         451.685         460.483
   40          54.922          54.922         124.515         313.426         313.426         404.355         452.150         452.150         464.675
   41          56.340          56.340         127.026         311.749         311.749         402.187         452.620         452.620         468.845
   42          57.754          57.754         129.502         310.050         310.050         399.948         453.093         453.093         472.987
   43          59.164          59.164         131.943         308.329         308.329         397.636         453.569         453.569         477.098
   44          60.569          60.569         134.350         306.588         306.588         395.253         454.049         454.049         481.173
   45          61.968          61.968         136.722         304.828         304.828         392.799         454.531         454.531         485.208
   46          63.361          63.361         139.060         303.050         303.050         390.273         455.015         455.015         489.200
   47          64.748          64.748         141.363         301.257         301.257         387.677         455.501         455.501         493.144
   48          66.128          66.128         143.632         299.449         299.449         385.010         455.988         455.988         497.038
   49          67.500          67.500         145.867         297.628         297.628         382.274         456.475         456.475         500.878
   50          68.863          68.863         148.067         295.795         295.795         379.469         456.963         456.963         504.661
   51          70.218          70.218         150.232         293.952         293.952         376.597         457.451         457.451         508.385
   52          71.563          71.563         152.362         292.101         292.101         373.659         457.938         457.938         512.047
   53          72.898          72.898         154.457         290.242         290.242         370.656         458.424         458.424         515.645
   54          74.222          74.222         156.518         288.379         288.379         367.590         458.908         458.908         519.176
   55          75.535          75.535         158.543         286.511         286.511         364.462         459.391         459.391         522.639
   56          76.836          76.836         160.532         284.642         284.642         361.275         459.871         459.871         526.031
   57          78.125          78.125         162.486         282.772         282.772         358.031         460.349         460.349         529.351
   58          79.400          79.400         164.404         280.903         280.903         354.732         460.823         460.823         532.599
   59          80.661          80.661         166.286         279.037         279.037         351.381         461.293         461.293         535.771
   60          81.909          81.909         168.132         277.176         277.176         347.981         461.760         461.760         538.868
   61          83.141          83.141         169.940         275.322         275.322         344.535         462.222         462.222         541.887
   62          84.357          84.357         171.712         273.475         273.475         341.046         462.679         462.679         544.829
   63          85.558          85.558         173.447         271.639         271.639         337.518         463.130         463.130         547.693
   64          86.741          86.741         175.144         269.815         269.815         333.954         463.576         463.576         550.478
   65          87.907          87.907         176.802         268.004         268.004         330.359         464.016         464.016         553.182
   66          89.054          89.054         178.423         266.209         266.209         326.737         464.449         464.449         555.807
   67          90.183          90.183         180.005         264.432         264.432         323.093         464.875         464.875         558.352
   68          91.292          91.292         181.548         262.674         262.674         319.432         465.293         465.293         560.817
   69          92.381          92.381         183.051         260.937         260.937         315.758         465.704         465.704         563.201
   70          93.449          93.449         184.514         259.224         259.224         312.077         466.107         466.107         565.504
   71          94.495          94.495         185.937         257.536         257.536         308.396         466.501         466.501         567.727
   72          95.519          95.519         187.319         255.876         255.876         304.719         466.886         466.886         569.870
   73          96.520          96.520         188.660         254.244         254.244         301.055         467.261         467.261         571.933
   74          97.498          97.498         189.960         252.644         252.644         297.408         467.628         467.628         573.917
   75          98.450          98.450         191.217         251.078         251.078         293.786         467.984         467.984         575.822
   76          99.378          99.378         192.432         249.547         249.547         290.197         468.329         468.329         577.647
   77         100.279         100.279         193.604         248.053         248.053         286.647         468.665         468.665         579.395
   78         101.153         101.153         194.732         246.599         246.599         283.145         468.989         468.989         581.064
   79         102.000         102.000         195.816         245.187         245.187         279.699         469.301         469.301         582.657
   80         102.817         102.817         196.857         243.819         243.819         276.317         469.602         469.602         584.172
   81         103.606         103.606         197.852         242.496         242.496         273.007         469.892         469.892         585.612
   82         104.364         104.364         198.802         241.222         241.222         269.779         470.169         470.169         586.976
   83         105.090         105.090         199.706         239.997         239.997         266.641         470.433         470.433         588.266
   84         105.785         105.785         200.564         238.824         238.824         263.603         470.685         470.685         589.481
   85         106.446         106.446         201.376         237.706         237.706         260.673         470.924         470.924         590.623
   86         107.073         107.073         202.141         236.643         236.643         257.861         471.149         471.149         591.692
   87         107.665         107.665         202.858         235.639         235.639         255.176         471.361         471.361         592.689
   88         108.221         108.221         203.528         234.694         234.694         252.627         471.559         471.559         593.614
   89         108.741         108.741         204.149         233.811         233.811         250.224         471.744         471.744         594.468
   90         109.222         109.222         204.723         232.992         232.992         247.974         471.914         471.914         595.251
   91         109.665         109.665         205.247         232.237         232.237         245.887         472.070         472.070         595.964
   92         110.069         110.069         205.723         231.550         231.550         243.972         472.212         472.212         596.608
   93         110.433         110.433         206.149         230.930         230.930         242.234         472.340         472.340         597.183
   94         110.755         110.755         206.525         230.380         230.380         240.683         472.452         472.452         597.689
   95         111.037         111.037         206.852         229.901         229.901         239.324         472.550         472.550         598.127
   96         111.275         111.275         207.129         229.493         229.493         238.164         472.633         472.633         598.496
   97         111.472         111.472         207.356         229.159         229.159         237.207         472.701         472.701         598.799
   98         111.625         111.625         207.533         228.897         228.897         236.458         472.754         472.754         599.033
   99         111.734         111.734         207.659         228.710         228.710         235.921         472.792         472.792         599.201
  100         111.800         111.800         207.735         228.598         228.598         235.598         472.814         472.814         599.302
  101         111.822         111.822         207.760         228.561         228.561         235.490         472.822         472.822         599.335
  102         111.834         111.856         207.715         228.515         228.711         235.531         472.794         472.833         599.325
  103         111.868         111.958         207.582         228.383         229.161         235.653         472.708         472.867         599.294
  104         111.926         112.128         207.369         228.172         229.899         235.846         472.567         472.923         599.243
  105         112.006         112.365         207.087         227.895         230.913         236.099         472.368         473.002         599.171
  106         112.109         112.669         206.746         227.563         232.188         236.399         472.112         473.103         599.080
  107         112.234         113.038         206.357         227.188         233.707         236.735         471.798         473.225         598.968
  108         112.379         113.472         205.928         226.780         235.457         237.098         471.427         473.369         598.837
  109         112.546         113.969         205.468         226.345         237.423         237.481         470.998         473.534         598.687
  110         112.732         114.527         204.979         225.891         237.878         239.592         470.510         473.719         598.518
  111         112.937         115.146         204.467         225.422         238.283         241.954         469.964         473.924         598.331
  112         113.160         115.822         203.931         224.942         238.694         244.497         469.358         474.149         598.126
  113         113.400         116.556         203.375         224.453         239.107         247.211         468.692         474.392         597.904
  114         113.656         117.343         202.797         223.960         239.520         250.086         467.966         474.653         597.666
  115         113.926         118.183         202.198         223.463         239.931         253.111         467.178         474.931         597.413
  116         114.211         119.073         201.578         222.966         240.339         256.277         466.329         475.226         597.144
  117         114.507         120.012         200.936         222.468         240.742         259.574         465.417         475.536         596.861
  118         114.815         120.996         200.271         221.972         241.140         262.993         464.442         475.860         596.566
  119         115.132         122.023         199.584         221.480         241.531         266.524         463.404         476.197         596.258
  120         115.457         123.092         198.874         220.992         241.914         270.156         462.300         476.547         595.939
  121         115.790         124.199         198.139         220.509         242.290         273.882         461.131         476.907         595.609
  122         116.128         125.343         197.381         220.032         242.656         277.691         459.896         477.277         595.271
  123         116.470         126.521         196.598         219.563         243.014         281.575         458.594         477.655         594.926
  124         116.815         127.732         195.790         219.102         243.362         285.524         457.224         478.041         594.573
  125         117.161         128.971         194.958         218.650         243.700         289.531         455.786         478.432         594.215
  126         117.508         130.238         194.101         218.208         244.027         293.587         454.278         478.827         593.854
  127         117.853         131.531         193.219         217.777         244.344         297.683         452.700         479.225         593.489
  128         118.195         132.846         192.312         217.358         244.649         301.813         451.051         479.625         593.124
  129         118.533         134.182         191.380         216.950         244.943         305.968         449.331         480.024         592.759
  130         118.866         135.538         190.424         216.556         245.226         310.142         447.539         480.420         592.395
  131         119.193         136.910         189.444         216.175         245.496         314.327         445.673         480.814         592.035
  132         119.512         138.297         188.439         215.808         245.755         318.518         443.734         481.202         591.679
  133         119.821         139.698         187.411         215.457         246.001         322.708         441.721         481.583         591.330
