# Phonon frequencies in cm-1
    1           0.000           0.000           0.000         312.879         312.879         677.810
    2           4.593           4.687          10.489         312.925         313.011         677.781
    3           9.186           9.373          20.974         313.061         313.405         677.695
    4          13.777          14.055          31.450         313.289         314.059         677.552
    5          18.367          18.731          41.912         313.606         314.973         677.352
    6          22.954          23.401          52.356         314.013         316.141         677.095
    7          27.538          28.061          62.777         314.508         317.561         676.781
    8          32.118          32.711          73.172         315.090         319.226         676.411
    9          36.695          37.349          83.535         315.758         321.131         675.984
   10          41.266          41.972          93.862         316.510         323.270         675.500
   11          45.832          46.580         104.149         317.344         325.635         674.961
   12          50.393          51.170         114.391         318.259         328.219         674.365
   13          54.947          55.741         124.584         319.251         331.013         673.715
   14          59.493          60.291         134.724         320.320         334.009         673.009
   15          64.032          64.818         144.806         321.463         337.198         672.248
   16          68.563          69.320         154.826         322.676         340.571         671.433
   17          73.086          73.797         164.780         323.958         344.119         670.563
   18          77.599          78.246         174.665         325.306         347.831         669.640
   19          82.102          82.665         184.475         326.716         351.700         668.664
   20          86.595          87.053         194.206         328.186         355.714         667.635
   21          91.078          91.409         203.856         329.713         359.866         666.554
   22          95.549          95.731         213.420         331.294         364.145         665.422
   23         100.008         100.017         222.894         332.926         368.543         664.238
   24         104.266         104.456         232.274         334.606         373.050         663.004
   25         108.476         108.891         241.557         336.330         377.659         661.719
   26         112.646         113.312         250.740         338.095         382.359         660.386
   27         116.774         117.721         259.818         339.899         387.143         659.003
   28         120.860         122.115         268.788         341.739         392.003         657.573
   29         124.901         126.496         277.648         343.610         396.931         656.095
   30         128.896         130.861         286.393         345.510         401.919         654.571
   31         132.844         135.212         295.021         347.437         406.961         653.001
   32         136.744         139.547         303.530         349.387         412.048         651.385
   33         140.595         143.866         311.915         351.357         417.175         649.726
   34         144.395         148.169         320.175         353.344         422.334         648.022
   35         148.143         152.455         328.306         355.346         427.519         646.276
   36         151.838         156.725         336.308         357.359         432.724         644.488
   37         155.480         160.977         344.176         359.382         437.944         642.658
   38         159.066         165.212         351.910         361.411         443.172         640.789
   39         162.597         169.429         359.508         363.444         448.403         638.880
   40         166.071         173.628         365.478         366.967         453.631         636.932
   41         169.488         177.808         367.512         374.287         458.852         634.947
   42         172.846         181.969         369.542         381.465         464.061         632.925
   43         176.145         186.112         371.566         388.501         469.252         630.868
   44         179.385         190.234         373.583         395.395         474.420         628.776
   45         182.564         194.337         375.591         402.145         479.562         626.650
   46         185.682         198.419         377.586         408.750         484.672         624.491
   47         188.739         202.481         379.568         415.211         489.746         622.301
   48         191.734         206.522         381.534         421.528         494.780         620.081
   49         194.667         210.541         383.483         427.700         499.770         617.831
   50         197.537         214.539         385.413         433.728         504.711         615.553
   51         200.344         218.514         387.322         439.612         509.600         613.247
   52         203.087         222.467         389.210         445.353         514.433         610.916
   53         205.768         226.397         391.074         450.951         519.206         608.560
   54         208.384         230.303         392.913         456.408         523.914         606.180
   55         210.937         234.185         394.725         461.724         528.556         603.778
   56         213.427         238.042         396.510         466.901         533.128         601.356
   57         215.853         241.874         398.267         471.939         537.625         598.914
   58         218.215         245.680         399.994         476.840         542.046         596.454
   59         220.513         249.459         401.690         481.606         546.387         593.977
   60         222.749         253.211         403.354         486.237         550.645         591.485
   61         224.921         256.934         404.985         490.735         554.818         588.980
   62         227.030         260.629         406.583         495.101         558.904         586.462
   63         229.076         264.293         408.147         499.337         562.900         583.935
   64         231.060         267.926         409.675         503.444         566.803         581.399
   65         232.982         271.526         411.168         507.423         570.613         578.857
   66         234.843         275.093         412.624         511.277         574.327         576.311
   67         236.642         278.625         414.044         515.005         573.762         577.944
   68         238.380         282.120         415.425         518.611         571.212         581.462
   69         240.059         285.577         416.769         522.094         568.665         584.879
   70         241.677         288.995         418.074         525.456         566.122         588.196
   71         243.236         292.371         419.340         528.699         563.586         591.409
   72         244.736         295.702         420.566         531.824         561.060         594.520
   73         246.178         298.988         421.753         534.831         558.547         597.527
   74         247.563         302.225         422.900         537.723         556.049         600.428
   75         248.890         305.411         424.006         540.500         553.570         603.225
   76         250.161         308.543         425.072         543.163         551.114         605.915
   77         251.376         311.617         426.098         545.713         548.684         608.500
   78         252.536         314.631         427.082         546.284         548.151         610.978
   79         253.641         317.581         428.025         543.918         550.479         613.350
   80         254.691         320.462         428.926         541.592         552.696         615.615
   81         255.689         323.270         429.786         539.308         554.805         617.773
   82         256.633         326.001         430.605         537.074         556.805         619.824
   83         257.526         328.650         431.382         534.893         558.698         621.769
   84         258.366         331.211         432.117         532.773         560.485         623.607
   85         259.155         333.679         432.810         530.718         562.165         625.339
   86         259.893         336.048         433.461         528.736         563.740         626.964
   87         260.582         338.311         434.071         526.832         565.211         628.483
   88         261.220         340.461         434.638         525.015         566.577         629.896
   89         261.809         342.493         435.164         523.290         567.840         631.204
   90         262.350         344.399         435.647         521.667         569.001         632.405
   91         262.841         346.171         436.089         520.151         570.058         633.502
   92         263.285         347.803         436.488         518.750         571.014         634.493
   93         263.682         349.287         436.845         517.473         571.868         635.379
   94         264.030         350.616         437.161         516.325         572.620         636.161
   95         264.332         351.783         437.434         515.315         573.272         636.838
   96         264.587         352.782         437.665         514.448         573.823         637.410
   97         264.795         353.609         437.854         513.730         574.273         637.879
   98         264.957         354.257         438.001         513.166         574.623         638.243
   99         265.073         354.722         438.106         512.760         574.873         638.503
  100         265.142         355.003         438.169         512.516         575.023         638.659
  101         265.165         355.097         438.190         512.434         575.073         638.711
  102         265.308         355.123         438.256         512.408         575.047         638.689
  103         265.737         355.204         438.453         512.331         574.970         638.623
  104         266.449         355.339         438.782         512.203         574.842         638.515
  105         267.440         355.527         439.239         512.023         574.662         638.363
  106         268.707         355.768         439.826         511.792         574.431         638.167
  107         270.241         356.064         440.538         511.510         574.149         637.929
  108         272.037         356.413         441.375         511.177         573.815         637.648
  109         274.086         356.815         442.334         510.792         573.431         637.325
  110         276.377         357.270         443.411         510.357         572.996         636.960
  111         278.902         357.779         444.603         509.871         572.511         636.554
  112         281.648         358.340         445.906         509.334         571.975         636.107
  113         284.604         358.954         447.318         508.747         571.389         635.619
  114         287.759         359.621         448.832         508.110         570.753         635.092
  115         291.100         360.340         450.445         507.422         570.068         634.526
  116         294.614         361.112         452.152         506.685         569.333         633.921
  117         298.288         361.935         453.948         505.897         568.550         633.279
  118         302.111         362.810         455.827         505.061         567.719         632.601
  119         306.069         363.736         457.784         504.175         566.840         631.887
  120         310.150         364.713         459.813         503.240         565.913         631.139
  121         314.341         365.740         461.909         502.256         564.941         630.357
  122         318.630         366.819         464.065         501.224         563.922         629.543
  123         323.005         367.947         466.275         500.144         562.858         628.699
  124         327.454         369.124         468.533         499.016         561.750         627.825
  125         331.967         370.351         470.832         497.841         560.598         626.924
  126         336.530         371.627         473.167         496.618         559.404         625.996
  127         341.135         372.951         475.530         495.349         558.170         625.044
  128         345.769         374.323         477.914         494.033         556.895         624.069
  129         350.423         375.742         480.313         492.671         555.583         623.074
  130         355.087         377.208         482.721         491.263         554.233         622.061
  131         359.750         378.721         485.129         489.810         552.849         621.032
  132         364.403         380.279         487.531         488.312         551.432         619.989
  133         369.036         381.883         486.769         489.919         549.985         618.936
  134         373.639         383.531         485.182         492.287         548.511         617.876
  135         378.204         385.224         483.552         494.626         547.011         616.811
  136         382.720         386.960         481.878         496.930         545.490         615.745
  137         387.179         388.739         480.161         499.190         543.951         614.682
  138         390.560         391.569         478.402         501.399         542.399         613.626
  139         392.423         395.882         476.601         503.549         540.838         612.581
  140         394.327         400.107         474.759         505.631         539.275         611.551
  141         396.271         404.234         472.875         507.637         537.714         610.542
  142         398.255         408.251         470.951         509.558         536.164         609.558
  143         400.278         412.145         468.987         511.387         534.632         608.604
  144         402.338         415.905         466.983         513.114         533.127         607.686
  145         404.436         419.516         464.940         514.732         531.661         606.810
  146         406.571         422.964         462.859         516.230         530.244         605.981
  147         408.741         426.233         460.739         517.602         528.890         605.204
  148         410.947         429.305         458.582         518.840         527.614         604.485
  149         413.186         432.163         456.387         519.935         526.432         603.828
  150         415.459         434.786         454.156         520.881         525.360         603.237
  151         417.765         437.156         451.888         521.672         524.417         602.717
  152         420.103         439.253         449.585         522.301         523.623         602.269
  153         422.471         441.058         447.247         522.733         523.025         601.895
  154         424.869         442.555         444.874         522.500         523.107         601.595
  155         427.296         442.468         443.730         522.240         523.239         601.367
  156         429.751         440.028         444.576         522.171         523.214         601.209
  157         432.230         437.559         445.088         522.300         523.028         601.117
  158         434.608         435.185         445.269         522.604         522.705         601.086
  159         432.085         437.704         445.077         522.085         523.242         601.117
  160         429.531         440.247         444.584         521.421         523.947         601.193
  161         426.946         442.814         443.807         520.618         524.803         601.307
  162         424.330         442.766         445.404         519.683         525.788         601.450
  163         421.685         441.482         448.015         518.623         526.882         601.613
  164         419.010         439.977         450.648         517.446         528.063         601.789
  165         416.307         438.271         453.300         516.158         529.309         601.969
  166         413.574         436.383         455.972         514.767         530.603         602.145
  167         410.814         434.333         458.662         513.278         531.926         602.308
  168         408.026         432.136         461.370         511.700         533.261         602.451
  169         405.210         429.806         464.095         510.037         534.594         602.567
  170         402.367         427.358         466.835         508.296         535.912         602.650
  171         399.498         424.801         469.591         506.481         537.205         602.692
  172         396.602         422.148         472.360         504.599         538.462         602.687
  173         393.680         419.405         475.143         502.653         539.675         602.631
  174         390.733         416.582         477.938         500.647         540.836         602.518
  175         387.761         413.684         480.745         498.586         541.938         602.342
  176         384.763         410.719         483.562         496.473         542.977         602.100
  177         381.741         407.692         486.389         494.312         543.947         601.788
  178         378.695         404.607         489.225         492.105         544.843         601.400
  179         375.625         401.468         489.855         492.069         545.662         600.934
  180         372.531         398.280         487.565         494.921         546.400         600.386
  181         369.413         395.045         485.237         497.779         547.055         599.753
  182         366.272         391.767         482.874         500.643         547.623         599.031
  183         363.109         388.448         480.476         503.511         548.103         598.218
  184         359.922         385.091         478.048         506.384         548.492         597.310
  185         356.713         381.697         475.589         509.259         548.789         596.306
  186         353.482         378.270         473.102         512.137         548.992         595.203
  187         350.228         374.809         470.588         515.016         549.099         593.999
  188         346.953         371.318         468.048         517.896         549.110         592.690
  189         343.656         367.797         465.485         520.775         549.022         591.275
  190         340.337         364.247         462.898         523.654         548.835         589.753
  191         336.997         360.670         460.290         526.531         548.549         588.120
  192         333.636         357.067         457.661         529.405         548.161         586.375
  193         330.253         353.438         455.013         532.275         547.672         584.517
  194         326.849         349.785         452.346         535.141         547.080         582.543
  195         323.425         346.107         449.661         538.002         546.386         580.452
