#   T(K)    C_v(k_B/fu)        Gamma     alpha_v*10^6(K^-1)   E_th(eV)                       P_th(GPa)
#                                                                         ----------------------------------------------
#                                                                          {sum G_i.U_iV}  {int G.C_v/V dT}    {G.U/V}
# ----------------------------------------------------------------------------------------------------------------------
    10           0.000           0.575           0.000           0.161           1.999           0.000           1.052
    20           0.003           0.614           0.001           0.161           1.999           0.000           1.124
    30           0.014           0.649           0.007           0.161           1.999           0.000           1.188
    40           0.041           0.690           0.022           0.161           1.999           0.000           1.263
    50           0.094           0.728           0.052           0.161           1.999           0.001           1.333
    60           0.181           0.760           0.105           0.161           2.000           0.002           1.393
    70           0.305           0.787           0.183           0.162           2.002           0.005           1.444
    80           0.461           0.811           0.286           0.162           2.005           0.008           1.490
    90           0.645           0.831           0.410           0.162           2.010           0.014           1.533
   100           0.848           0.850           0.552           0.163           2.016           0.021           1.573
   110           1.064           0.866           0.707           0.164           2.024           0.030           1.612
   120           1.288           0.882           0.870           0.165           2.034           0.041           1.650
   130           1.514           0.895           1.039           0.166           2.046           0.054           1.688
   140           1.738           0.907           1.210           0.167           2.060           0.070           1.725
   150           1.958           0.918           1.380           0.169           2.077           0.087           1.763
   160           2.172           0.928           1.547           0.171           2.096           0.107           1.800
   170           2.377           0.937           1.710           0.173           2.116           0.129           1.838
   180           2.574           0.945           1.866           0.175           2.139           0.152           1.876
   190           2.760           0.952           2.017           0.177           2.164           0.178           1.915
   200           2.937           0.958           2.160           0.180           2.191           0.206           1.955
   210           3.103           0.964           2.297           0.182           2.219           0.235           1.995
   220           3.260           0.969           2.426           0.185           2.249           0.266           2.035
   230           3.407           0.973           2.547           0.188           2.281           0.298           2.077
   240           3.545           0.977           2.662           0.191           2.314           0.332           2.119
   250           3.675           0.981           2.770           0.194           2.349           0.368           2.162
   260           3.796           0.985           2.871           0.197           2.385           0.404           2.205
   270           3.909           0.988           2.966           0.200           2.422           0.442           2.250
   280           4.015           0.991           3.056           0.204           2.460           0.481           2.294
   290           4.114           0.993           3.139           0.207           2.500           0.521           2.340
   300           4.207           0.995           3.218           0.211           2.540           0.562           2.386
   310           4.293           0.998           3.292           0.215           2.582           0.604           2.433
   320           4.375           1.000           3.361           0.218           2.624           0.647           2.480
   330           4.451           1.001           3.426           0.222           2.667           0.690           2.528
   340           4.522           1.003           3.487           0.226           2.711           0.735           2.576
   350           4.589           1.005           3.544           0.230           2.756           0.780           2.625
   360           4.652           1.006           3.598           0.234           2.801           0.826           2.674
   370           4.711           1.008           3.648           0.238           2.848           0.872           2.724
   380           4.767           1.009           3.696           0.242           2.894           0.919           2.774
   390           4.819           1.010           3.741           0.246           2.942           0.967           2.825
   400           4.868           1.011           3.783           0.250           2.990           1.015           2.876
   410           4.915           1.012           3.823           0.255           3.038           1.064           2.927
   420           4.959           1.013           3.861           0.259           3.087           1.113           2.979
   430           5.000           1.014           3.897           0.263           3.136           1.163           3.031
   440           5.039           1.015           3.930           0.267           3.186           1.213           3.083
   450           5.076           1.015           3.962           0.272           3.237           1.263           3.136
   460           5.111           1.016           3.992           0.276           3.287           1.314           3.189
   470           5.144           1.017           4.021           0.281           3.338           1.365           3.242
   480           5.175           1.018           4.048           0.285           3.390           1.417           3.295
   490           5.205           1.018           4.074           0.290           3.441           1.469           3.349
   500           5.233           1.019           4.098           0.294           3.493           1.521           3.403
   510           5.260           1.019           4.121           0.299           3.546           1.573           3.457
   520           5.285           1.020           4.143           0.303           3.598           1.626           3.512
   530           5.310           1.020           4.164           0.308           3.651           1.679           3.566
   540           5.333           1.021           4.184           0.312           3.704           1.732           3.621
   550           5.354           1.021           4.203           0.317           3.758           1.786           3.676
   560           5.375           1.022           4.222           0.322           3.811           1.840           3.731
   570           5.395           1.022           4.239           0.326           3.865           1.894           3.786
   580           5.414           1.022           4.255           0.331           3.919           1.948           3.842
   590           5.433           1.023           4.271           0.335           3.974           2.002           3.898
   600           5.450           1.023           4.286           0.340           4.028           2.057           3.953
   610           5.466           1.023           4.301           0.345           4.083           2.111           4.009
   620           5.482           1.024           4.315           0.350           4.138           2.166           4.065
   630           5.498           1.024           4.328           0.354           4.193           2.222           4.122
   640           5.512           1.024           4.340           0.359           4.248           2.277           4.178
   650           5.526           1.025           4.353           0.364           4.303           2.332           4.234
   660           5.539           1.025           4.364           0.369           4.359           2.388           4.291
   670           5.552           1.025           4.375           0.373           4.414           2.443           4.348
   680           5.565           1.025           4.386           0.378           4.470           2.499           4.404
   690           5.576           1.025           4.396           0.383           4.526           2.555           4.461
   700           5.588           1.026           4.406           0.388           4.582           2.611           4.518
   710           5.599           1.026           4.416           0.393           4.638           2.668           4.575
   720           5.609           1.026           4.425           0.397           4.695           2.724           4.632
   730           5.619           1.026           4.434           0.402           4.751           2.780           4.690
   740           5.629           1.026           4.442           0.407           4.807           2.837           4.747
   750           5.638           1.027           4.450           0.412           4.864           2.894           4.805
   760           5.647           1.027           4.458           0.417           4.921           2.950           4.862
   770           5.656           1.027           4.466           0.422           4.978           3.007           4.920
   780           5.664           1.027           4.473           0.427           5.035           3.064           4.977
   790           5.672           1.027           4.480           0.431           5.092           3.121           5.035
   800           5.680           1.027           4.487           0.436           5.149           3.178           5.093
   810           5.688           1.028           4.493           0.441           5.206           3.236           5.151
   820           5.695           1.028           4.500           0.446           5.263           3.293           5.209
   830           5.702           1.028           4.506           0.451           5.320           3.350           5.267
   840           5.709           1.028           4.512           0.456           5.378           3.408           5.325
   850           5.715           1.028           4.518           0.461           5.435           3.465           5.383
   860           5.722           1.028           4.523           0.466           5.493           3.523           5.441
   870           5.728           1.028           4.528           0.471           5.550           3.581           5.499
   880           5.734           1.028           4.534           0.476           5.608           3.638           5.558
   890           5.739           1.029           4.539           0.481           5.666           3.696           5.616
   900           5.745           1.029           4.543           0.486           5.724           3.754           5.674
   910           5.750           1.029           4.548           0.491           5.782           3.812           5.733
   920           5.756           1.029           4.553           0.495           5.840           3.870           5.791
   930           5.761           1.029           4.557           0.500           5.898           3.928           5.850
   940           5.766           1.029           4.561           0.505           5.956           3.986           5.908
   950           5.770           1.029           4.566           0.510           6.014           4.044           5.967
   960           5.775           1.029           4.570           0.515           6.072           4.102           6.025
   970           5.779           1.029           4.574           0.520           6.130           4.160           6.084
   980           5.784           1.029           4.577           0.525           6.188           4.219           6.143
   990           5.788           1.029           4.581           0.530           6.247           4.277           6.202
  1000           5.792           1.030           4.585           0.535           6.305           4.335           6.260
  1010           5.796           1.030           4.588           0.540           6.363           4.394           6.319
  1020           5.800           1.030           4.591           0.545           6.422           4.452           6.378
  1030           5.804           1.030           4.595           0.550           6.480           4.511           6.437
  1040           5.807           1.030           4.598           0.555           6.539           4.569           6.496
  1050           5.811           1.030           4.601           0.560           6.597           4.628           6.555
  1060           5.814           1.030           4.604           0.565           6.656           4.687           6.614
  1070           5.818           1.030           4.607           0.570           6.715           4.745           6.673
  1080           5.821           1.030           4.610           0.575           6.773           4.804           6.732
  1090           5.824           1.030           4.613           0.580           6.832           4.863           6.791
  1100           5.827           1.030           4.615           0.585           6.891           4.921           6.850
  1110           5.830           1.030           4.618           0.590           6.950           4.980           6.910
  1120           5.833           1.030           4.621           0.595           7.008           5.039           6.969
  1130           5.836           1.030           4.623           0.600           7.067           5.098           7.028
  1140           5.839           1.030           4.626           0.605           7.126           5.157           7.087
  1150           5.842           1.030           4.628           0.611           7.185           5.216           7.146
  1160           5.844           1.030           4.630           0.616           7.244           5.275           7.206
  1170           5.847           1.031           4.633           0.621           7.303           5.334           7.265
  1180           5.849           1.031           4.635           0.626           7.362           5.393           7.324
  1190           5.852           1.031           4.637           0.631           7.421           5.452           7.384
  1200           5.854           1.031           4.639           0.636           7.480           5.511           7.443
  1210           5.857           1.031           4.641           0.641           7.539           5.570           7.502
  1220           5.859           1.031           4.643           0.646           7.598           5.629           7.562
  1230           5.861           1.031           4.645           0.651           7.657           5.688           7.621
  1240           5.863           1.031           4.647           0.656           7.716           5.747           7.681
  1250           5.866           1.031           4.649           0.661           7.776           5.806           7.740
  1260           5.868           1.031           4.651           0.666           7.835           5.866           7.800
  1270           5.870           1.031           4.653           0.671           7.894           5.925           7.859
  1280           5.872           1.031           4.654           0.676           7.953           5.984           7.919
  1290           5.874           1.031           4.656           0.681           8.013           6.043           7.978
  1300           5.876           1.031           4.658           0.686           8.072           6.103           8.038
  1310           5.877           1.031           4.659           0.691           8.131           6.162           8.097
  1320           5.879           1.031           4.661           0.696           8.191           6.221           8.157
  1330           5.881           1.031           4.662           0.701           8.250           6.281           8.217
  1340           5.883           1.031           4.664           0.707           8.309           6.340           8.276
  1350           5.884           1.031           4.665           0.712           8.369           6.400           8.336
  1360           5.886           1.031           4.667           0.717           8.428           6.459           8.395
  1370           5.888           1.031           4.668           0.722           8.487           6.518           8.455
  1380           5.889           1.031           4.670           0.727           8.547           6.578           8.515
  1390           5.891           1.031           4.671           0.732           8.606           6.637           8.574
  1400           5.892           1.031           4.672           0.737           8.666           6.697           8.634
  1410           5.894           1.031           4.674           0.742           8.725           6.756           8.694
  1420           5.895           1.031           4.675           0.747           8.785           6.816           8.754
  1430           5.897           1.031           4.676           0.752           8.844           6.875           8.813
  1440           5.898           1.031           4.677           0.757           8.904           6.935           8.873
  1450           5.900           1.031           4.679           0.762           8.964           6.995           8.933
  1460           5.901           1.031           4.680           0.767           9.023           7.054           8.993
  1470           5.902           1.032           4.681           0.773           9.083           7.114           9.053
  1480           5.904           1.032           4.682           0.778           9.142           7.173           9.112
  1490           5.905           1.032           4.683           0.783           9.202           7.233           9.172
  1500           5.906           1.032           4.684           0.788           9.262           7.293           9.232
  1510           5.907           1.032           4.685           0.793           9.321           7.352           9.292
  1520           5.909           1.032           4.687           0.798           9.381           7.412           9.352
  1530           5.910           1.032           4.688           0.803           9.441           7.472           9.412
  1540           5.911           1.032           4.689           0.808           9.500           7.531           9.471
  1550           5.912           1.032           4.690           0.813           9.560           7.591           9.531
  1560           5.913           1.032           4.691           0.818           9.620           7.651           9.591
  1570           5.914           1.032           4.691           0.823           9.679           7.710           9.651
  1580           5.915           1.032           4.692           0.829           9.739           7.770           9.711
  1590           5.916           1.032           4.693           0.834           9.799           7.830           9.771
  1600           5.917           1.032           4.694           0.839           9.859           7.890           9.831
  1610           5.918           1.032           4.695           0.844           9.918           7.950           9.891
  1620           5.919           1.032           4.696           0.849           9.978           8.009           9.951
  1630           5.920           1.032           4.697           0.854          10.038           8.069          10.011
  1640           5.921           1.032           4.698           0.859          10.098           8.129          10.071
