#   T(K)    C_v(k_B/fu)        Gamma     alpha_v*10^6(K^-1)   E_th(eV)                       P_th(GPa)
#                                                                         ----------------------------------------------
#                                                                          {sum G_i.U_iV}  {int G.C_v/V dT}    {G.U/V}
# ----------------------------------------------------------------------------------------------------------------------
    10           0.000           4.080           0.000           0.262           5.407           0.000          16.640
    20           0.001           4.136           0.007           0.262           5.407           0.000          16.872
    30           0.009           4.187           0.056           0.262           5.407           0.001          17.077
    40           0.024           4.182           0.147           0.262           5.408           0.002          17.060
    50           0.043           4.089           0.256           0.262           5.410           0.004          16.682
    60           0.066           3.896           0.374           0.262           5.413           0.008          15.898
    70           0.095           3.629           0.504           0.262           5.417           0.012          14.813
    80           0.133           3.334           0.649           0.262           5.422           0.018          13.612
    90           0.182           3.050           0.811           0.263           5.429           0.026          12.459
   100           0.243           2.799           0.993           0.263           5.437           0.035          11.441
   110           0.316           2.587           1.193           0.263           5.447           0.046          10.585
   120           0.400           2.412           1.411           0.263           5.459           0.059           9.882
   130           0.496           2.270           1.644           0.264           5.473           0.074           9.311
   140           0.601           2.153           1.891           0.264           5.489           0.091           8.849
   150           0.715           2.058           2.148           0.265           5.508           0.111           8.474
   160           0.835           1.979           2.414           0.265           5.529           0.133           8.170
   170           0.961           1.913           2.686           0.266           5.552           0.158           7.921
   180           1.091           1.858           2.962           0.267           5.578           0.185           7.719
   190           1.224           1.811           3.239           0.268           5.607           0.215           7.554
   200           1.359           1.772           3.517           0.269           5.638           0.247           7.420
   210           1.494           1.738           3.793           0.270           5.671           0.282           7.311
   220           1.629           1.709           4.067           0.272           5.707           0.319           7.223
   230           1.763           1.683           4.336           0.273           5.746           0.359           7.154
   240           1.896           1.661           4.601           0.275           5.787           0.401           7.101
   250           2.026           1.641           4.859           0.276           5.830           0.446           7.060
   260           2.154           1.624           5.112           0.278           5.876           0.493           7.032
   270           2.279           1.609           5.358           0.280           5.924           0.542           7.014
   280           2.401           1.595           5.597           0.282           5.974           0.593           7.004
   290           2.520           1.583           5.829           0.284           6.027           0.647           7.003
   300           2.635           1.572           6.053           0.286           6.081           0.702           7.009
   310           2.746           1.562           6.269           0.289           6.138           0.760           7.022
   320           2.854           1.554           6.478           0.291           6.196           0.819           7.040
   330           2.958           1.545           6.680           0.294           6.257           0.880           7.064
   340           3.059           1.538           6.874           0.296           6.319           0.944           7.092
   350           3.156           1.531           7.061           0.299           6.383           1.008           7.125
   360           3.249           1.525           7.241           0.302           6.449           1.075           7.162
   370           3.339           1.520           7.414           0.305           6.516           1.143           7.203
   380           3.425           1.515           7.580           0.308           6.585           1.212           7.247
   390           3.509           1.510           7.739           0.311           6.655           1.283           7.294
   400           3.589           1.505           7.892           0.314           6.727           1.356           7.345
   410           3.665           1.501           8.039           0.317           6.800           1.430           7.398
   420           3.739           1.498           8.181           0.320           6.874           1.505           7.454
   430           3.810           1.494           8.316           0.323           6.950           1.581           7.512
   440           3.878           1.491           8.446           0.326           7.027           1.659           7.572
   450           3.943           1.488           8.571           0.330           7.105           1.737           7.635
   460           4.006           1.485           8.691           0.333           7.184           1.817           7.699
   470           4.066           1.482           8.806           0.337           7.264           1.898           7.766
   480           4.124           1.480           8.916           0.340           7.346           1.980           7.834
   490           4.180           1.477           9.022           0.344           7.428           2.062           7.904
   500           4.233           1.475           9.124           0.347           7.511           2.146           7.975
   510           4.285           1.473           9.222           0.351           7.596           2.231           8.048
   520           4.334           1.471           9.316           0.355           7.681           2.316           8.123
   530           4.382           1.469           9.406           0.359           7.767           2.403           8.198
   540           4.427           1.468           9.493           0.362           7.853           2.490           8.276
   550           4.471           1.466           9.576           0.366           7.941           2.578           8.354
   560           4.513           1.464           9.656           0.370           8.029           2.666           8.433
   570           4.554           1.463           9.733           0.374           8.118           2.756           8.514
   580           4.593           1.462           9.808           0.378           8.208           2.846           8.595
   590           4.630           1.460           9.879           0.382           8.298           2.936           8.678
   600           4.667           1.459           9.948           0.386           8.389           3.028           8.761
   610           4.701           1.458          10.014           0.390           8.481           3.119           8.846
   620           4.735           1.457          10.078           0.394           8.573           3.212           8.931
   630           4.767           1.456          10.139           0.398           8.666           3.305           9.017
   640           4.799           1.455          10.198           0.402           8.759           3.399           9.104
   650           4.829           1.454          10.255           0.406           8.853           3.493           9.192
   660           4.858           1.453          10.310           0.411           8.947           3.587           9.281
   670           4.886           1.452          10.363           0.415           9.042           3.682           9.370
   680           4.913           1.451          10.415           0.419           9.137           3.778           9.460
   690           4.939           1.450          10.464           0.423           9.233           3.874           9.550
   700           4.964           1.449          10.512           0.427           9.329           3.971           9.641
   710           4.988           1.449          10.558           0.432           9.426           4.067           9.733
   720           5.012           1.448          10.602           0.436           9.523           4.165           9.825
   730           5.034           1.447          10.645           0.440           9.621           4.262           9.918
   740           5.056           1.447          10.687           0.445           9.719           4.360          10.011
   750           5.078           1.446          10.727           0.449           9.817           4.459          10.105
   760           5.098           1.445          10.766           0.454           9.915           4.558          10.200
   770           5.118           1.445          10.804           0.458          10.014           4.657          10.295
   780           5.137           1.444          10.840           0.462          10.114           4.756          10.390
   790           5.156           1.444          10.875           0.467          10.213           4.856          10.486
   800           5.174           1.443          10.909           0.471          10.313           4.956          10.582
   810           5.191           1.443          10.942           0.476          10.414           5.057          10.679
   820           5.208           1.442          10.974           0.480          10.514           5.157          10.776
   830           5.225           1.442          11.005           0.485          10.615           5.258          10.873
   840           5.241           1.441          11.036           0.489          10.716           5.360          10.971
   850           5.256           1.441          11.065           0.494          10.818           5.461          11.069
   860           5.271           1.440          11.093           0.498          10.919           5.563          11.167
   870           5.285           1.440          11.120           0.503          11.021           5.665          11.266
   880           5.299           1.440          11.147           0.507          11.123           5.767          11.365
   890           5.313           1.439          11.173           0.512          11.226           5.870          11.465
   900           5.326           1.439          11.198           0.516          11.329           5.973          11.565
   910           5.339           1.439          11.222           0.521          11.431           6.076          11.665
   920           5.352           1.438          11.246           0.526          11.535           6.179          11.765
   930           5.364           1.438          11.269           0.530          11.638           6.282          11.866
   940           5.376           1.438          11.291           0.535          11.741           6.386          11.967
   950           5.387           1.437          11.313           0.540          11.845           6.490          12.068
   960           5.398           1.437          11.334           0.544          11.949           6.594          12.169
   970           5.409           1.437          11.355           0.549          12.053           6.698          12.271
   980           5.420           1.436          11.374           0.554          12.157           6.802          12.373
   990           5.430           1.436          11.394           0.558          12.262           6.907          12.475
  1000           5.440           1.436          11.413           0.563          12.367           7.012          12.577
  1010           5.450           1.436          11.431           0.568          12.471           7.117          12.680
  1020           5.459           1.435          11.449           0.572          12.576           7.222          12.783
  1030           5.468           1.435          11.467           0.577          12.682           7.327          12.886
  1040           5.477           1.435          11.483           0.582          12.787           7.432          12.989
  1050           5.486           1.435          11.500           0.586          12.892           7.538          13.092
  1060           5.495           1.435          11.516           0.591          12.998           7.644          13.196
  1070           5.503           1.434          11.532           0.596          13.104           7.749          13.300
  1080           5.511           1.434          11.547           0.601          13.210           7.855          13.404
  1090           5.519           1.434          11.562           0.605          13.316           7.962          13.508
  1100           5.527           1.434          11.577           0.610          13.422           8.068          13.612
  1110           5.534           1.434          11.591           0.615          13.528           8.174          13.717
  1120           5.541           1.433          11.605           0.620          13.635           8.281          13.821
  1130           5.549           1.433          11.618           0.624          13.741           8.387          13.926
  1140           5.556           1.433          11.631           0.629          13.848           8.494          14.031
  1150           5.562           1.433          11.644           0.634          13.955           8.601          14.136
  1160           5.569           1.433          11.657           0.639          14.062           8.708          14.242
  1170           5.576           1.432          11.669           0.644          14.169           8.815          14.347
  1180           5.582           1.432          11.681           0.648          14.276           8.922          14.453
  1190           5.588           1.432          11.693           0.653          14.383           9.029          14.558
  1200           5.594           1.432          11.704           0.658          14.490           9.137          14.664
  1210           5.600           1.432          11.715           0.663          14.598           9.244          14.770
  1220           5.606           1.432          11.726           0.668          14.705           9.352          14.876
  1230           5.611           1.432          11.737           0.673          14.813           9.460          14.982
  1240           5.617           1.431          11.747           0.677          14.921           9.568          15.089
  1250           5.622           1.431          11.757           0.682          15.029           9.675          15.195
  1260           5.628           1.431          11.767           0.687          15.137           9.783          15.302
  1270           5.633           1.431          11.777           0.692          15.245           9.892          15.408
  1280           5.638           1.431          11.787           0.697          15.353          10.000          15.515
  1290           5.643           1.431          11.796           0.702          15.461          10.108          15.622
  1300           5.647           1.431          11.805           0.707          15.569          10.216          15.729
  1310           5.652           1.431          11.814           0.711          15.678          10.325          15.836
  1320           5.657           1.430          11.823           0.716          15.786          10.433          15.943
  1330           5.661           1.430          11.831           0.721          15.895          10.542          16.051
  1340           5.666           1.430          11.839           0.726          16.003          10.650          16.158
  1350           5.670           1.430          11.848           0.731          16.112          10.759          16.266
  1360           5.674           1.430          11.856           0.736          16.221          10.868          16.373
  1370           5.679           1.430          11.864           0.741          16.330          10.977          16.481
  1380           5.683           1.430          11.871           0.746          16.439          11.086          16.589
  1390           5.687           1.430          11.879           0.751          16.547          11.195          16.697
  1400           5.690           1.430          11.886           0.755          16.657          11.304          16.805
  1410           5.694           1.430          11.893           0.760          16.766          11.413          16.913
  1420           5.698           1.429          11.900           0.765          16.875          11.522          17.021
  1430           5.702           1.429          11.907           0.770          16.984          11.632          17.129
  1440           5.705           1.429          11.914           0.775          17.093          11.741          17.237
  1450           5.709           1.429          11.921           0.780          17.203          11.850          17.346
  1460           5.712           1.429          11.927           0.785          17.312          11.960          17.454
  1470           5.716           1.429          11.934           0.790          17.422          12.069          17.562
  1480           5.719           1.429          11.940           0.795          17.531          12.179          17.671
  1490           5.722           1.429          11.946           0.800          17.641          12.289          17.780
  1500           5.726           1.429          11.952           0.805          17.751          12.398          17.888
  1510           5.729           1.429          11.958           0.810          17.860          12.508          17.997
  1520           5.732           1.429          11.964           0.814          17.970          12.618          18.106
  1530           5.735           1.429          11.970           0.819          18.080          12.728          18.215
  1540           5.738           1.429          11.975           0.824          18.190          12.838          18.324
  1550           5.741           1.428          11.981           0.829          18.300          12.948          18.433
  1560           5.744           1.428          11.986           0.834          18.410          13.058          18.542
  1570           5.746           1.428          11.992           0.839          18.520          13.168          18.651
  1580           5.749           1.428          11.997           0.844          18.630          13.278          18.760
  1590           5.752           1.428          12.002           0.849          18.740          13.388          18.870
  1600           5.755           1.428          12.007           0.854          18.850          13.498          18.979
  1610           5.757           1.428          12.012           0.859          18.960          13.608          19.088
  1620           5.760           1.428          12.017           0.864          19.071          13.719          19.198
  1630           5.762           1.428          12.022           0.869          19.181          13.829          19.307
  1640           5.765           1.428          12.026           0.874          19.291          13.939          19.417
