# Phonon frequencies in cm-1
    1         458.571         458.571         525.792         525.792         897.719        1120.606
    2         458.096         458.096         526.224         526.224         897.600        1120.591
    3         456.708         456.708         527.482         527.482         897.245        1120.548
    4         454.500         454.500         529.475         529.475         896.653        1120.477
    5         451.595         451.595         532.079         532.079         895.825        1120.376
    6         448.121         448.121         535.167         535.167         894.761        1120.246
    7         444.189         444.189         538.626         538.626         893.462        1120.086
    8         439.894         439.894         542.364         542.364         891.929        1119.897
    9         435.310         435.310         546.307         546.307         890.164        1119.677
   10         430.492         430.492         550.400         550.400         888.166        1119.427
   11         425.486         425.486         554.597         554.597         885.938        1119.146
   12         420.326         420.326         558.867         558.867         883.480        1118.833
   13         415.037         415.037         563.183         563.183         880.795        1118.488
   14         409.641         409.641         567.525         567.525         877.884        1118.110
   15         404.155         404.155         571.877         571.877         874.748        1117.700
   16         398.593         398.593         576.227         576.227         871.389        1117.256
   17         392.965         392.965         580.564         580.564         867.809        1116.778
   18         387.281         387.281         584.880         584.880         864.010        1116.266
   19         381.549         381.549         589.169         589.169         859.994        1115.720
   20         375.775         375.775         593.424         593.424         855.762        1115.138
   21         369.967         369.967         597.641         597.641         851.317        1114.522
   22         364.129         364.129         601.815         601.815         846.660        1113.871
   23         358.267         358.267         605.944         605.944         841.794        1113.184
   24         352.383         352.383         610.025         610.025         836.720        1112.462
   25         346.484         346.484         614.054         614.054         831.440        1111.706
   26         340.571         340.571         618.030         618.030         825.957        1110.914
   27         334.650         334.650         621.951         621.951         820.273        1110.087
   28         328.723         328.723         625.815         625.815         814.389        1109.226
   29         322.793         322.793         629.620         629.620         808.307        1108.331
   30         316.863         316.863         633.367         633.367         802.030        1107.403
   31         310.937         310.937         637.052         637.052         795.560        1106.442
   32         305.016         305.016         640.676         640.676         788.898        1105.448
   33         299.104         299.104         644.238         644.238         782.047        1104.422
   34         293.204         293.204         647.737         647.737         775.009        1103.366
   35         287.317         287.317         651.173         651.173         767.785        1102.280
   36         281.446         281.446         654.544         654.544         760.378        1101.164
   37         275.594         275.594         657.851         657.851         752.790        1100.021
   38         269.763         269.763         661.093         661.093         745.023        1098.850
   39         263.956         263.956         664.271         664.271         737.078        1097.654
   40         258.174         258.174         667.383         667.383         728.959        1096.432
   41         252.419         252.419         670.430         670.430         720.667        1095.187
   42         246.695         246.695         673.412         673.412         712.204        1093.920
   43         241.002         241.002         676.329         676.329         703.573        1092.632
   44         235.343         235.343         679.181         679.181         694.774        1091.324
   45         229.721         229.721         681.968         681.968         685.812        1089.997
   46         224.136         224.136         676.687         684.691         684.691        1088.654
   47         218.591         218.591         667.403         687.348         687.348        1087.296
   48         213.088         213.088         657.961         689.942         689.942        1085.924
   49         207.628         207.628         648.363         692.472         692.472        1084.539
   50         202.213         202.213         638.612         694.938         694.938        1083.144
   51         196.845         196.845         628.710         697.342         697.342        1081.740
   52         191.525         191.525         618.659         699.683         699.683        1080.328
   53         186.256         186.256         608.462         701.961         701.961        1078.910
   54         181.038         181.038         598.121         704.178         704.178        1077.488
   55         175.873         175.873         587.639         706.334         706.334        1076.064
   56         170.762         170.762         577.017         708.429         708.429        1074.638
   57         165.707         165.707         566.259         710.464         710.464        1073.213
   58         160.709         160.709         555.367         712.440         712.440        1071.790
   59         155.769         155.769         544.343         714.357         714.357        1070.372
   60         150.887         150.887         533.190         716.216         716.216        1068.959
   61         146.066         146.066         521.910         718.017         718.017        1067.554
   62         141.305         141.305         510.507         719.761         719.761        1066.157
   63         136.606         136.606         498.982         721.450         721.450        1064.772
   64         131.970         131.970         487.339         723.083         723.083        1063.399
   65         127.396         127.396         475.579         724.661         724.661        1062.039
   66         122.886         122.886         463.707         726.185         726.185        1060.696
   67         118.440         118.440         451.724         727.656         727.656        1059.369
   68         114.058         114.058         439.634         729.074         729.074        1058.062
   69         109.741         109.741         427.439         730.441         730.441        1056.775
   70         105.488         105.488         415.142         731.756         731.756        1055.509
   71         101.299         101.299         402.745         733.021         733.021        1054.267
   72          97.175          97.175         390.253         734.236         734.236        1053.051
   73          93.115          93.115         377.667         735.402         735.402        1051.860
   74          89.118          89.118         364.991         736.520         736.520        1050.697
   75          85.184          85.184         352.228         737.590         737.590        1049.564
   76          81.313          81.313         339.380         738.614         738.614        1048.461
   77          77.503          77.503         326.451         739.591         739.591        1047.390
   78          73.754          73.754         313.444         740.522         740.522        1046.352
   79          70.064          70.064         300.362         741.409         741.409        1045.349
   80          66.433          66.433         287.207         742.252         742.252        1044.382
   81          62.858          62.858         273.984         743.051         743.051        1043.451
   82          59.339          59.339         260.695         743.806         743.806        1042.558
   83          55.873          55.873         247.343         744.520         744.520        1041.704
   84          52.460          52.460         233.932         745.191         745.191        1040.891
   85          49.096          49.096         220.464         745.821         745.821        1040.118
   86          45.781          45.781         206.943         746.410         746.410        1039.388
   87          42.511          42.511         193.373         746.959         746.959        1038.700
   88          39.284          39.284         179.756         747.468         747.468        1038.056
   89          36.098          36.098         166.096         747.938         747.938        1037.457
   90          32.950          32.950         152.396         748.368         748.368        1036.902
   91          29.838          29.838         138.659         748.760         748.760        1036.394
   92          26.759          26.759         124.888         749.113         749.113        1035.932
   93          23.709          23.709         111.088         749.428         749.428        1035.518
   94          20.686          20.686          97.261         749.706         749.706        1035.151
   95          17.687          17.687          83.410         749.946         749.946        1034.832
   96          14.707          14.707          69.539         750.148         750.148        1034.561
   97          11.745          11.745          55.651         750.314         750.314        1034.339
   98           8.797           8.797          41.750         750.442         750.442        1034.166
   99           5.859           5.859          27.839         750.534         750.534        1034.043
  100           2.928           2.928          13.921         750.589         750.589        1033.968
  101           0.000           0.000           0.000         750.608         750.608         750.608
  102           2.915           8.603          11.257         750.589         750.659        1033.917
  103           5.831          17.203          22.513         750.535         750.815        1033.839
  104           8.749          25.800          33.767         750.444         751.074        1033.707
  105          11.669          34.390          45.017         750.316         751.436        1033.523
  106          14.592          42.973          56.262         750.152         751.902        1033.287
  107          17.520          51.546          67.501         749.951         752.470        1032.998
  108          20.452          60.106          78.732         749.713         753.140        1032.657
  109          23.389          68.653          89.955         749.437         753.912        1032.264
  110          26.332          77.184         101.168         749.125         754.786        1031.819
  111          29.283          85.697         112.371         748.774         755.759        1031.322
  112          32.241          94.190         123.561         748.385         756.833        1030.773
  113          35.207         102.662         134.737         747.958         758.006        1030.173
  114          38.182         111.110         145.899         747.492         759.276        1029.522
  115          41.167         119.532         157.044         746.986         760.644        1028.819
  116          44.162         127.927         168.172         746.441         762.109        1028.066
  117          47.168         136.292         179.281         745.855         763.668        1027.262
  118          50.185         144.626         190.371         745.229         765.321        1026.408
  119          53.214         152.928         201.438         744.562         767.067        1025.504
  120          56.255         161.194         212.484         743.852         768.904        1024.550
  121          59.309         169.424         223.504         743.101         770.832        1023.547
  122          62.376         177.615         234.500         742.306         772.849        1022.496
  123          65.457         185.766         245.468         741.467         774.953        1021.396
  124          68.552         193.874         256.408         740.585         777.143        1020.248
  125          71.661         201.940         267.318         739.657         779.417        1019.053
  126          74.785         209.959         278.197         738.684         781.774        1017.811
  127          77.924         217.932         289.042         737.665         784.213        1016.523
  128          81.077         225.856         299.853         736.598         786.731        1015.190
  129          84.246         233.729         310.628         735.484         789.327        1013.811
  130          87.430         241.551         321.366         734.322         792.000        1012.388
  131          90.630         249.319         332.063         733.110         794.746        1010.922
  132          93.845         257.033         342.720         731.849         797.566        1009.413
  133          97.075         264.689         353.333         730.537         800.456        1007.863
  134         100.321         272.288         363.902         729.173         803.415        1006.271
  135         103.582         279.828         374.424         727.758         806.441        1004.640
  136         106.859         287.307         384.897         726.290         809.533        1002.969
  137         110.150         294.723         395.320         724.768         812.687        1001.262
  138         113.457         302.077         405.689         723.192         815.903         999.517
  139         116.778         309.366         416.004         721.561         819.178         997.738
  140         120.113         316.589         426.262         719.874         822.510         995.925
  141         123.463         323.745         436.460         718.131         825.898         994.080
  142         126.826         330.833         446.596         716.331         829.339         992.204
  143         130.203         337.851         456.668         714.474         832.831         990.299
  144         133.592         344.799         466.672         712.558         836.372         988.367
  145         136.994         351.676         476.606         710.583         839.960         986.411
  146         140.408         358.481         486.467         708.548         843.593         984.431
  147         143.833         365.212         496.252         706.453         847.269         982.432
  148         147.269         371.870         505.958         704.298         850.985         980.414
  149         150.715         378.452         515.580         702.081         854.741         978.381
  150         154.170         384.959         525.116         699.803         858.533         976.337
  151         157.635         391.389         534.561         697.462         862.359         974.283
  152         161.107         397.742         543.912         695.059         866.217         972.224
  153         164.587         404.017         553.163         692.593         870.106         970.163
  154         168.074         410.214         562.311         690.063         874.023         968.105
  155         171.566         416.331         571.349         687.470         877.966         966.054
  156         175.063         422.370         580.273         684.813         881.933         964.015
  157         178.565         428.328         589.076         682.091         885.921         961.994
  158         182.069         434.205         597.752         679.306         889.929         959.995
  159         185.576         440.002         606.295         676.455         893.955         958.026
  160         189.084         445.718         614.696         673.540         897.995         956.093
  161         192.593         451.352         622.948         670.561         902.050         954.205
  162         196.101         456.905         631.042         667.516         906.115         952.368
  163         199.607         462.376         638.969         664.408         910.190         950.593
  164         203.111         467.764         646.718         661.234         914.272         948.888
  165         206.610         473.070         654.280         657.997         918.359         947.265
  166         210.105         478.294         654.696         661.641         922.449         945.734
  167         213.595         483.436         651.331         668.790         926.540         944.308
  168         217.077         488.495         647.902         675.714         930.630         943.001
  169         220.550         493.471         644.411         682.397         934.717         941.825
  170         224.015         498.366         640.858         688.826         938.799         940.796
  171         227.469         503.178         637.243         694.985         939.929         942.874
  172         230.911         507.908         633.567         700.857         939.240         946.940
  173         234.341         512.556         629.830         706.428         938.744         950.995
  174         237.756         517.122         626.035         711.680         938.458         955.038
  175         241.156         521.606         622.180         716.599         938.398         959.066
  176         244.539         526.009         618.269         721.170         938.577         963.077
  177         247.904         530.331         614.301         725.380         939.009         967.071
  178         251.251         534.573         610.277         729.218         939.705         971.044
  179         254.577         538.734         606.200         732.675         940.674         974.995
  180         257.881         542.814         602.070         735.747         941.921         978.922
  181         261.162         546.816         597.889         738.430         943.449         982.824
  182         264.419         550.737         593.659         740.727         945.258         986.699
  183         267.651         554.580         589.380         742.641         947.343         990.545
  184         270.855         558.344         585.056         744.182         949.695         994.360
  185         274.031         562.031         580.687         745.361         952.304         998.143
  186         277.178         565.639         576.276         746.193         955.155        1001.892
  187         280.293         569.171         571.825         746.695         958.233        1005.605
  188         283.376         567.336         572.626         746.885         961.520        1009.282
  189         286.426         562.812         576.005         746.783         964.996        1012.920
  190         289.440         558.255         579.308         746.409         968.642        1016.518
  191         292.418         553.668         582.537         745.785         972.438        1020.074
  192         295.358         549.053         585.690         744.930         976.364        1023.587
  193         298.258         544.414         588.770         743.866         980.402        1027.055
  194         301.118         539.753         591.777         742.611         984.532        1030.478
  195         303.935         535.074         594.711         741.184         988.737        1033.853
