#   T(K)    C_v(k_B/fu)        Gamma     alpha_v*10^6(K^-1)   E_th(eV)                       P_th(GPa)
#                                                                         ----------------------------------------------
#                                                                          {sum G_i.U_iV}  {int G.C_v/V dT}    {G.U/V}
# ----------------------------------------------------------------------------------------------------------------------
    10           0.001          -0.998          -0.002           0.125           0.394          -0.000          -0.508
    20           0.035          -1.200          -0.124           0.125           0.394          -0.000          -0.611
    30           0.157          -1.316          -0.620           0.125           0.394          -0.001          -0.670
    40           0.366          -1.311          -1.435           0.125           0.392          -0.003          -0.668
    50           0.615          -1.264          -2.324           0.126           0.390          -0.005          -0.647
    60           0.868          -1.197          -3.107           0.126           0.387          -0.009          -0.616
    70           1.114          -1.114          -3.707           0.127           0.383          -0.013          -0.576
    80           1.351          -1.016          -4.105           0.128           0.378          -0.018          -0.530
    90           1.584          -0.910          -4.310           0.130           0.373          -0.023          -0.480
   100           1.814          -0.802          -4.348           0.131           0.368          -0.028          -0.427
   110           2.041          -0.696          -4.249           0.133           0.363          -0.033          -0.376
   120           2.264          -0.598          -4.046           0.135           0.358          -0.038          -0.327
   130           2.481          -0.508          -3.766           0.137           0.354          -0.042          -0.282
   140           2.691          -0.427          -3.433           0.139           0.350          -0.046          -0.241
   150           2.892          -0.355          -3.069           0.141           0.346          -0.050          -0.204
   160           3.083          -0.292          -2.688           0.144           0.342          -0.053          -0.171
   170           3.263          -0.236          -2.302           0.147           0.339          -0.056          -0.141
   180           3.432          -0.187          -1.919           0.149           0.337          -0.058          -0.114
   190           3.591          -0.144          -1.546           0.152           0.335          -0.060          -0.089
   200           3.738          -0.106          -1.187           0.156           0.333          -0.061          -0.067
   210           3.876          -0.073          -0.843           0.159           0.332          -0.062          -0.047
   220           4.003          -0.043          -0.516           0.162           0.331          -0.063          -0.028
   230           4.122          -0.017          -0.208           0.166           0.331          -0.063          -0.011
   240           4.231           0.007           0.083           0.169           0.331          -0.063           0.005
   250           4.333           0.027           0.356           0.173           0.331          -0.063           0.019
   260           4.427           0.046           0.612           0.177           0.332          -0.062           0.033
   270           4.515           0.063           0.851           0.181           0.332          -0.061           0.046
   280           4.596           0.078           1.076           0.185           0.334          -0.060           0.059
   290           4.671           0.092           1.285           0.189           0.335          -0.058           0.071
   300           4.741           0.105           1.482           0.193           0.337          -0.056           0.082
   310           4.806           0.116           1.665           0.197           0.338          -0.054           0.093
   320           4.866           0.126           1.837           0.201           0.341          -0.052           0.103
   330           4.923           0.136           1.997           0.205           0.343          -0.050           0.113
   340           4.975           0.144           2.147           0.209           0.345          -0.047           0.123
   350           5.024           0.152           2.288           0.214           0.348          -0.045           0.133
   360           5.070           0.160           2.420           0.218           0.351          -0.042           0.142
   370           5.113           0.166           2.544           0.222           0.353          -0.039           0.151
   380           5.153           0.173           2.661           0.227           0.357          -0.036           0.159
   390           5.190           0.179           2.770           0.231           0.360          -0.033           0.168
   400           5.226           0.184           2.873           0.236           0.363          -0.029           0.176
   410           5.259           0.189           2.969           0.240           0.366          -0.026           0.185
   420           5.290           0.194           3.060           0.245           0.370          -0.022           0.193
   430           5.319           0.198           3.146           0.249           0.374          -0.018           0.201
   440           5.346           0.202           3.227           0.254           0.377          -0.015           0.209
   450           5.372           0.206           3.304           0.259           0.381          -0.011           0.217
   460           5.397           0.209           3.376           0.263           0.385          -0.007           0.224
   470           5.420           0.213           3.445           0.268           0.389          -0.003           0.232
   480           5.442           0.216           3.509           0.273           0.393           0.001           0.239
   490           5.463           0.219           3.571           0.277           0.397           0.006           0.247
   500           5.482           0.221           3.629           0.282           0.402           0.010           0.254
   510           5.501           0.224           3.684           0.287           0.406           0.014           0.261
   520           5.518           0.226           3.736           0.292           0.410           0.018           0.269
   530           5.535           0.229           3.786           0.296           0.415           0.023           0.276
   540           5.551           0.231           3.834           0.301           0.419           0.027           0.283
   550           5.566           0.233           3.879           0.306           0.424           0.032           0.290
   560           5.581           0.235           3.922           0.311           0.428           0.037           0.297
   570           5.594           0.237           3.962           0.315           0.433           0.041           0.304
   580           5.607           0.239           4.001           0.320           0.438           0.046           0.311
   590           5.620           0.240           4.039           0.325           0.442           0.051           0.318
   600           5.632           0.242           4.074           0.330           0.447           0.055           0.325
   610           5.643           0.244           4.108           0.335           0.452           0.060           0.332
   620           5.654           0.245           4.141           0.340           0.457           0.065           0.339
   630           5.664           0.246           4.172           0.345           0.461           0.070           0.346
   640           5.674           0.248           4.201           0.349           0.466           0.075           0.352
   650           5.684           0.249           4.230           0.354           0.471           0.080           0.359
   660           5.693           0.250           4.257           0.359           0.476           0.085           0.366
   670           5.701           0.251           4.283           0.364           0.481           0.090           0.372
   680           5.710           0.252           4.308           0.369           0.486           0.095           0.379
   690           5.718           0.253           4.332           0.374           0.491           0.100           0.386
   700           5.725           0.254           4.355           0.379           0.497           0.105           0.392
   710           5.733           0.255           4.377           0.384           0.502           0.110           0.399
   720           5.740           0.256           4.399           0.389           0.507           0.115           0.406
   730           5.747           0.257           4.419           0.394           0.512           0.121           0.412
   740           5.753           0.258           4.439           0.399           0.517           0.126           0.419
   750           5.759           0.259           4.458           0.404           0.522           0.131           0.425
   760           5.765           0.260           4.476           0.409           0.528           0.136           0.432
   770           5.771           0.260           4.494           0.414           0.533           0.142           0.438
   780           5.777           0.261           4.511           0.419           0.538           0.147           0.445
   790           5.782           0.262           4.527           0.424           0.543           0.152           0.452
   800           5.788           0.263           4.543           0.429           0.549           0.158           0.458
   810           5.793           0.263           4.558           0.434           0.554           0.163           0.464
   820           5.798           0.264           4.573           0.439           0.560           0.168           0.471
   830           5.802           0.264           4.587           0.444           0.565           0.174           0.477
   840           5.807           0.265           4.601           0.449           0.570           0.179           0.484
   850           5.811           0.266           4.614           0.454           0.576           0.184           0.490
   860           5.815           0.266           4.627           0.459           0.581           0.190           0.497
   870           5.820           0.267           4.639           0.464           0.587           0.195           0.503
   880           5.824           0.267           4.651           0.469           0.592           0.201           0.510
   890           5.827           0.268           4.663           0.474           0.597           0.206           0.516
   900           5.831           0.268           4.674           0.479           0.603           0.212           0.522
   910           5.835           0.269           4.685           0.484           0.608           0.217           0.529
   920           5.838           0.269           4.696           0.489           0.614           0.223           0.535
   930           5.842           0.269           4.706           0.494           0.619           0.228           0.542
   940           5.845           0.270           4.716           0.499           0.625           0.234           0.548
   950           5.848           0.270           4.725           0.504           0.630           0.239           0.554
   960           5.851           0.271           4.735           0.509           0.636           0.245           0.561
   970           5.854           0.271           4.744           0.514           0.642           0.250           0.567
   980           5.857           0.271           4.753           0.519           0.647           0.256           0.573
   990           5.860           0.272           4.761           0.524           0.653           0.262           0.580
  1000           5.862           0.272           4.769           0.529           0.658           0.267           0.586
  1010           5.865           0.272           4.777           0.534           0.664           0.273           0.592
  1020           5.868           0.273           4.785           0.539           0.670           0.278           0.599
  1030           5.870           0.273           4.793           0.544           0.675           0.284           0.605
  1040           5.873           0.273           4.800           0.549           0.681           0.290           0.611
  1050           5.875           0.274           4.807           0.554           0.686           0.295           0.618
  1060           5.877           0.274           4.814           0.559           0.692           0.301           0.624
  1070           5.880           0.274           4.821           0.564           0.698           0.307           0.630
  1080           5.882           0.275           4.828           0.570           0.703           0.312           0.636
  1090           5.884           0.275           4.834           0.575           0.709           0.318           0.643
  1100           5.886           0.275           4.841           0.580           0.715           0.324           0.649
  1110           5.888           0.275           4.847           0.585           0.720           0.329           0.655
  1120           5.890           0.276           4.853           0.590           0.726           0.335           0.662
  1130           5.892           0.276           4.858           0.595           0.732           0.341           0.668
  1140           5.894           0.276           4.864           0.600           0.738           0.346           0.674
  1150           5.896           0.276           4.869           0.605           0.743           0.352           0.680
  1160           5.897           0.277           4.875           0.610           0.749           0.358           0.687
  1170           5.899           0.277           4.880           0.615           0.755           0.364           0.693
  1180           5.901           0.277           4.885           0.620           0.760           0.369           0.699
  1190           5.902           0.277           4.890           0.625           0.766           0.375           0.705
  1200           5.904           0.277           4.895           0.630           0.772           0.381           0.712
  1210           5.905           0.278           4.900           0.636           0.778           0.387           0.718
  1220           5.907           0.278           4.904           0.641           0.783           0.392           0.724
  1230           5.908           0.278           4.909           0.646           0.789           0.398           0.730
  1240           5.910           0.278           4.913           0.651           0.795           0.404           0.737
  1250           5.911           0.278           4.918           0.656           0.801           0.410           0.743
  1260           5.913           0.278           4.922           0.661           0.806           0.415           0.749
  1270           5.914           0.279           4.926           0.666           0.812           0.421           0.755
  1280           5.915           0.279           4.930           0.671           0.818           0.427           0.762
  1290           5.917           0.279           4.934           0.676           0.824           0.433           0.768
  1300           5.918           0.279           4.938           0.681           0.830           0.438           0.774
  1310           5.919           0.279           4.941           0.687           0.835           0.444           0.780
  1320           5.920           0.279           4.945           0.692           0.841           0.450           0.786
  1330           5.922           0.280           4.949           0.697           0.847           0.456           0.793
  1340           5.923           0.280           4.952           0.702           0.853           0.462           0.799
  1350           5.924           0.280           4.956           0.707           0.859           0.468           0.805
  1360           5.925           0.280           4.959           0.712           0.864           0.473           0.811
  1370           5.926           0.280           4.962           0.717           0.870           0.479           0.818
  1380           5.927           0.280           4.965           0.722           0.876           0.485           0.824
  1390           5.928           0.280           4.969           0.727           0.882           0.491           0.830
  1400           5.929           0.280           4.972           0.732           0.888           0.497           0.836
  1410           5.930           0.281           4.975           0.738           0.894           0.502           0.842
  1420           5.931           0.281           4.978           0.743           0.899           0.508           0.849
  1430           5.932           0.281           4.980           0.748           0.905           0.514           0.855
  1440           5.933           0.281           4.983           0.753           0.911           0.520           0.861
  1450           5.934           0.281           4.986           0.758           0.917           0.526           0.867
  1460           5.935           0.281           4.989           0.763           0.923           0.532           0.873
  1470           5.936           0.281           4.991           0.768           0.929           0.538           0.880
  1480           5.937           0.281           4.994           0.773           0.934           0.543           0.886
  1490           5.937           0.281           4.997           0.778           0.940           0.549           0.892
  1500           5.938           0.282           4.999           0.784           0.946           0.555           0.898
  1510           5.939           0.282           5.002           0.789           0.952           0.561           0.904
  1520           5.940           0.282           5.004           0.794           0.958           0.567           0.910
  1530           5.941           0.282           5.006           0.799           0.964           0.573           0.917
  1540           5.941           0.282           5.009           0.804           0.970           0.579           0.923
  1550           5.942           0.282           5.011           0.809           0.976           0.585           0.929
  1560           5.943           0.282           5.013           0.814           0.981           0.590           0.935
  1570           5.944           0.282           5.015           0.819           0.987           0.596           0.941
  1580           5.944           0.282           5.017           0.825           0.993           0.602           0.948
  1590           5.945           0.282           5.020           0.830           0.999           0.608           0.954
  1600           5.946           0.283           5.022           0.835           1.005           0.614           0.960
  1610           5.946           0.283           5.024           0.840           1.011           0.620           0.966
  1620           5.947           0.283           5.026           0.845           1.017           0.626           0.972
  1630           5.948           0.283           5.028           0.850           1.023           0.632           0.978
  1640           5.948           0.283           5.030           0.855           1.029           0.638           0.985
