# Phonon frequencies in cm-1
    1           0.000           0.000           0.000         346.907         346.907         346.907         436.084         436.084         436.084
    2           1.389           1.389           3.683         346.881         346.881         347.013         436.061         436.093         436.093
    3           2.779           2.779           7.364         346.805         346.805         347.333         435.992         436.122         436.122
    4           4.169           4.169          11.038         346.677         346.677         347.865         435.878         436.170         436.170
    5           5.560           5.560          14.703         346.499         346.499         348.607         435.718         436.237         436.237
    6           6.952           6.952          18.356         346.270         346.270         349.558         435.512         436.323         436.323
    7           8.345           8.345          21.995         345.991         345.991         350.713         435.259         436.428         436.428
    8           9.739           9.739          25.617         345.661         345.661         352.071         434.959         436.551         436.551
    9          11.136          11.136          29.218         345.282         345.282         353.626         434.612         436.693         436.693
   10          12.534          12.534          32.798         344.852         344.852         355.374         434.217         436.854         436.854
   11          13.934          13.934          36.353         344.373         344.373         357.310         433.773         437.032         437.032
   12          15.336          15.336          39.881         343.844         343.844         359.429         433.280         437.229         437.229
   13          16.741          16.741          43.382         343.267         343.267         361.724         432.737         437.442         437.442
   14          18.148          18.148          46.852         342.641         342.641         364.188         432.144         437.673         437.673
   15          19.557          19.557          50.292         341.967         341.967         366.816         431.498         437.921         437.921
   16          20.970          20.970          53.699         341.246         341.246         369.600         430.801         438.186         438.186
   17          22.385          22.385          57.072         340.477         340.477         372.533         430.050         438.466         438.466
   18          23.802          23.802          60.410         339.662         339.662         375.606         429.245         438.763         438.763
   19          25.223          25.223          63.713         338.800         338.800         378.813         428.385         439.075         439.075
   20          26.645          26.645          66.980         337.893         337.893         382.145         427.468         439.402         439.402
   21          28.071          28.071          70.211         336.941         336.941         385.595         426.494         439.743         439.743
   22          29.499          29.499          73.405         335.945         335.945         389.155         425.462         440.099         440.099
   23          30.929          30.929          76.562         334.905         334.905         392.815         424.371         440.468         440.468
   24          32.362          32.362          79.681         333.823         333.823         396.569         423.219         440.851         440.851
   25          33.796          33.796          82.763         332.698         332.698         400.408         422.005         441.246         441.246
   26          35.233          35.233          85.808         331.532         331.532         404.325         420.729         441.653         441.653
   27          36.671          36.671          88.816         330.325         330.325         408.311         419.389         442.072         442.072
   28          38.110          38.110          91.786         329.078         329.078         412.359         417.985         442.502         442.502
   29          39.551          39.551          94.719         327.792         327.792         416.461         416.515         442.943         442.943
   30          40.992          40.992          97.616         326.469         326.469         414.978         420.611         443.394         443.394
   31          42.433          42.433         100.476         325.108         325.108         413.373         424.799         443.854         443.854
   32          43.875          43.875         103.300         323.711         323.711         411.700         429.021         444.324         444.324
   33          45.317          45.317         106.087         322.278         322.278         409.958         433.268         444.802         444.802
   34          46.757          46.757         108.838         320.811         320.811         408.145         437.534         445.288         445.288
   35          48.197          48.197         111.554         319.311         319.311         406.262         441.813         445.781         445.781
   36          49.635          49.635         114.234         317.779         317.779         404.307         446.099         446.282         446.282
   37          51.071          51.071         116.879         316.216         316.216         402.279         446.788         446.788         450.385
   38          52.505          52.505         119.489         314.623         314.623         400.179         447.301         447.301         454.666
   39          53.936          53.936         122.064         313.001         313.001         398.006         447.818         447.818         458.937
   40          55.364          55.364         124.604         311.351         311.351         395.759         448.340         448.340         463.192
   41          56.787          56.787         127.109         309.675         309.675         393.438         448.867         448.867         467.426
   42          58.206          58.206         129.579         307.973         307.973         391.043         449.397         449.397         471.635
   43          59.620          59.620         132.016         306.247         306.247         388.574         449.929         449.929         475.814
   44          61.029          61.029         134.417         304.499         304.499         386.032         450.465         450.465         479.958
   45          62.431          62.431         136.785         302.729         302.729         383.415         451.002         451.002         484.064
   46          63.827          63.827         139.118         300.940         300.940         380.725         451.541         451.541         488.128
   47          65.216          65.216         141.416         299.131         299.131         377.962         452.081         452.081         492.146
   48          66.597          66.597         143.680         297.306         297.306         375.127         452.621         452.621         496.115
   49          67.970          67.970         145.910         295.464         295.464         372.220         453.160         453.160         500.031
   50          69.334          69.334         148.105         293.609         293.609         369.243         453.700         453.700         503.891
   51          70.689          70.689         150.265         291.740         291.740         366.195         454.238         454.238         507.694
   52          72.034          72.034         152.391         289.860         289.860         363.080         454.774         454.774         511.435
   53          73.368          73.368         154.481         287.970         287.970         359.897         455.308         455.308         515.113
   54          74.691          74.691         156.537         286.073         286.073         356.649         455.840         455.840         518.726
   55          76.003          76.003         158.557         284.168         284.168         353.337         456.368         456.368         522.270
   56          77.302          77.302         160.542         282.259         282.259         349.964         456.893         456.893         525.746
   57          78.588          78.588         162.491         280.346         280.346         346.531         457.413         457.413         529.150
   58          79.861          79.861         164.405         278.433         278.433         343.040         457.929         457.929         532.481
   59          81.120          81.120         166.282         276.519         276.519         339.496         458.440         458.440         535.738
   60          82.365          82.365         168.122         274.607         274.607         335.899         458.946         458.946         538.920
   61          83.594          83.594         169.926         272.699         272.699         332.254         459.446         459.446         542.025
   62          84.808          84.808         171.693         270.797         270.797         328.563         459.939         459.939         545.053
   63          86.006          86.006         173.422         268.903         268.903         324.831         460.426         460.426         548.002
   64          87.187          87.187         175.114         267.018         267.018         321.060         460.905         460.905         550.872
   65          88.350          88.350         176.767         265.144         265.144         317.255         461.377         461.377         553.662
   66          89.495          89.495         178.383         263.284         263.284         313.421         461.841         461.841         556.372
   67          90.622          90.622         179.959         261.439         261.439         309.562         462.297         462.297         559.002
   68          91.730          91.730         181.496         259.612         259.612         305.682         462.743         462.743         561.550
   69          92.817          92.817         182.994         257.804         257.804         301.788         463.181         463.181         564.018
   70          93.885          93.885         184.451         256.018         256.018         297.884         463.609         463.609         566.404
   71          94.931          94.931         185.868         254.256         254.256         293.977         464.027         464.027         568.709
   72          95.955          95.955         187.245         252.519         252.519         290.072         464.436         464.436         570.933
   73          96.957          96.957         188.580         250.811         250.811         286.177         464.833         464.833         573.076
   74          97.936          97.936         189.873         249.133         249.133         282.297         465.220         465.220         575.138
   75          98.891          98.891         191.125         247.487         247.487         278.440         465.595         465.595         577.120
   76          99.821          99.821         192.333         245.877         245.877         274.615         465.959         465.959         579.021
   77         100.725         100.725         193.499         244.303         244.303         270.827         466.312         466.312         580.842
   78         101.604         101.604         194.621         242.769         242.769         267.087         466.652         466.652         582.584
   79         102.455         102.455         195.700         241.277         241.277         263.401         466.980         466.980         584.246
   80         103.279         103.279         196.734         239.829         239.829         259.780         467.295         467.295         585.830
   81         104.073         104.073         197.723         238.428         238.428         256.232         467.597         467.597         587.336
   82         104.838         104.838         198.667         237.075         237.075         252.767         467.886         467.886         588.763
   83         105.572         105.572         199.566         235.774         235.774         249.394         468.162         468.162         590.114
   84         106.274         106.274         200.419         234.526         234.526         246.123         468.424         468.424         591.388
   85         106.943         106.943         201.225         233.334         233.334         242.965         468.673         468.673         592.586
   86         107.579         107.579         201.984         232.201         232.201         239.930         468.907         468.907         593.708
   87         108.180         108.180         202.697         231.127         231.127         237.027         469.127         469.127         594.754
   88         108.746         108.746         203.362         230.117         230.117         234.268         469.333         469.333         595.727
   89         109.274         109.274         203.979         229.172         229.172         231.663         469.524         469.524         596.624
   90         109.765         109.765         204.547         228.293         228.293         229.221         469.701         469.701         597.449
   91         110.217         110.217         205.068         226.953         227.484         227.484         469.862         469.862         598.200
   92         110.630         110.630         205.540         224.868         226.745         226.745         470.009         470.009         598.878
   93         111.001         111.001         205.963         222.975         226.079         226.079         470.140         470.140         599.483
   94         111.331         111.331         206.336         221.283         225.487         225.487         470.257         470.257         600.017
   95         111.619         111.619         206.661         219.799         224.971         224.971         470.358         470.358         600.479
   96         111.864         111.864         206.935         218.531         224.532         224.532         470.443         470.443         600.869
   97         112.065         112.065         207.160         217.484         224.171         224.171         470.514         470.514         601.188
   98         112.222         112.222         207.335         216.665         223.889         223.889         470.568         470.568         601.435
   99         112.335         112.335         207.460         216.077         223.688         223.688         470.607         470.607         601.612
  100         112.403         112.403         207.535         215.723         223.566         223.566         470.631         470.631         601.718
  101         112.425         112.425         207.561         215.604         223.526         223.526         470.638         470.638         601.754
  102         112.435         112.458         207.491         215.519         223.608         223.701         470.609         470.655         601.740
  103         112.464         112.556         207.289         215.274         223.845         224.219         470.521         470.705         601.700
  104         112.512         112.719         206.974         214.893         224.211         225.059         470.375         470.789         601.634
  105         112.578         112.947         206.571         214.408         224.677         226.192         470.170         470.905         601.541
  106         112.664         113.239         206.103         213.844         225.215         227.592         469.906         471.054         601.422
  107         112.767         113.593         205.590         213.224         225.803         229.234         469.582         471.236         601.276
  108         112.889         114.010         205.045         212.564         226.427         231.098         469.200         471.449         601.106
  109         113.027         114.488         204.479         211.875         227.074         233.168         468.757         471.694         600.910
  110         113.182         115.024         203.896         211.167         227.736         235.429         468.255         471.969         600.690
  111         113.353         115.619         203.300         210.444         228.406         237.872         467.692         472.274         600.445
  112         113.538         116.270         202.692         209.713         229.081         240.486         467.068         472.608         600.177
  113         113.738         116.976         202.073         208.977         229.756         243.260         466.382         472.969         599.887
  114         113.951         117.734         201.441         208.239         230.428         246.187         465.634         473.358         599.574
  115         114.177         118.543         200.796         207.502         231.096         249.256         464.824         473.773         599.241
  116         114.414         119.400         200.137         206.768         231.758         252.460         463.951         474.212         598.887
  117         114.661         120.304         199.462         206.038         232.411         255.789         463.014         474.674         598.514
  118         114.917         121.253         198.771         205.315         233.055         259.234         462.013         475.158         598.123
  119         115.182         122.244         198.062         204.599         233.687         262.786         460.947         475.662         597.715
  120         115.453         123.275         197.334         203.893         234.309         266.437         459.815         476.186         597.291
  121         115.731         124.344         196.586         203.197         234.917         270.178         458.616         476.726         596.852
  122         116.013         125.448         195.818         202.513         235.512         273.999         457.350         477.281         596.400
  123         116.299         126.586         195.028         201.841         236.093         277.892         456.017         477.850         595.937
  124         116.587         127.756         194.217         201.184         236.658         281.850         454.615         478.430         595.464
  125         116.877         128.954         193.384         200.541         237.208         285.862         453.144         479.020         594.982
  126         117.166         130.180         192.529         199.914         237.742         289.923         451.603         479.617         594.493
  127         117.455         131.430         191.651         199.304         238.258         294.023         449.991         480.219         593.999
  128         117.741         132.703         190.750         198.711         238.758         298.156         448.308         480.825         593.501
  129         118.024         133.997         189.827         198.137         239.239         302.314         446.553         481.430         593.003
  130         118.303         135.310         188.881         197.582         239.702         306.490         444.726         482.034         592.505
  131         118.576         136.640         187.912         197.048         240.147         310.678         442.826         482.634         592.009
  132         118.843         137.985         186.921         196.534         240.572         314.871         440.852         483.227         591.518
  133         119.103         139.343         185.907         196.042         240.977         319.064         438.804         483.811         591.035
