# Phonon frequencies in cm-1
    1           0.000           0.000           0.000         317.102         317.102         317.102         417.720         417.720         417.720
    2           1.315           1.315           3.583         317.076         317.076         317.214         417.700         417.726         417.726
    3           2.630           2.630           7.163         316.996         316.996         317.547         417.639         417.742         417.742
    4           3.946           3.946          10.736         316.864         316.864         318.102         417.536         417.769         417.769
    5           5.262           5.262          14.299         316.678         316.678         318.876         417.393         417.807         417.807
    6           6.579           6.579          17.850         316.440         316.440         319.867         417.208         417.855         417.855
    7           7.897           7.897          21.384         316.149         316.149         321.072         416.981         417.914         417.914
    8           9.216           9.216          24.901         315.805         315.805         322.485         416.712         417.983         417.983
    9          10.537          10.537          28.396         315.410         315.410         324.104         416.400         418.063         418.063
   10          11.859          11.859          31.867         314.963         314.963         325.922         416.044         418.154         418.154
   11          13.183          13.183          35.312         314.464         314.464         327.933         415.644         418.254         418.254
   12          14.509          14.509          38.729         313.914         313.914         330.132         415.198         418.365         418.365
   13          15.836          15.836          42.117         313.313         313.313         332.512         414.706         418.486         418.486
   14          17.166          17.166          45.473         312.661         312.661         335.065         414.167         418.616         418.616
   15          18.498          18.498          48.796         311.960         311.960         337.784         413.580         418.756         418.756
   16          19.832          19.832          52.084         311.209         311.209         340.661         412.944         418.906         418.906
   17          21.168          21.168          55.338         310.410         310.410         343.687         412.257         419.065         419.065
   18          22.507          22.507          58.556         309.562         309.562         346.855         411.519         419.233         419.233
   19          23.847          23.847          61.737         308.666         308.666         350.156         410.728         419.410         419.410
   20          25.190          25.190          64.880         307.723         307.723         353.580         409.883         419.596         419.596
   21          26.535          26.535          67.986         306.733         306.733         357.121         408.983         419.790         419.790
   22          27.882          27.882          71.055         305.698         305.698         360.768         408.026         419.993         419.993
   23          29.230          29.230          74.085         304.618         304.618         364.513         407.011         420.203         420.203
   24          30.581          30.581          77.078         303.493         303.493         368.347         405.936         420.422         420.422
   25          31.933          31.933          80.032         302.325         302.325         372.262         404.801         420.648         420.648
   26          33.286          33.286          82.949         301.114         301.114         376.250         403.603         420.881         420.881
   27          34.640          34.640          85.828         299.862         299.862         380.302         402.342         421.122         421.122
   28          35.996          35.996          88.670         298.568         298.568         384.409         401.016         421.369         421.369
   29          37.352          37.352          91.474         297.234         297.234         388.565         399.624         421.623         421.623
   30          38.708          38.708          94.241         295.861         295.861         392.761         398.164         421.884         421.884
   31          40.065          40.065          96.972         294.450         294.450         396.636         396.990         422.150         422.150
   32          41.421          41.421          99.667         293.001         293.001         395.037         401.244         422.423         422.423
   33          42.777          42.777         102.325         291.517         291.517         393.367         405.517         422.701         422.701
   34          44.131          44.131         104.947         289.997         289.997         391.625         409.802         422.984         422.984
   35          45.485          45.485         107.534         288.443         288.443         389.810         414.092         423.272         423.272
   36          46.836          46.836         110.085         286.856         286.856         387.919         418.381         423.565         423.565
   37          48.185          48.185         112.602         285.238         285.238         385.954         422.664         423.862         423.862
   38          49.532          49.532         115.083         283.588         283.588         383.912         424.164         424.164         426.933
   39          50.876          50.876         117.530         281.909         281.909         381.793         424.470         424.470         431.185
   40          52.216          52.216         119.942         280.202         280.202         379.596         424.779         424.779         435.413
   41          53.552          53.552         122.320         278.468         278.468         377.321         425.091         425.091         439.614
   42          54.884          54.884         124.664         276.708         276.708         374.968         425.407         425.407         443.781
   43          56.210          56.210         126.973         274.923         274.923         372.535         425.725         425.725         447.911
   44          57.532          57.532         129.249         273.116         273.116         370.022         426.046         426.046         452.000
   45          58.847          58.847         131.491         271.286         271.286         367.431         426.369         426.369         456.044
   46          60.156          60.156         133.698         269.436         269.436         364.759         426.694         426.694         460.039
   47          61.458          61.458         135.872         267.567         267.567         362.009         427.021         427.021         463.981
   48          62.753          62.753         138.013         265.681         265.681         359.179         427.349         427.349         467.868
   49          64.039          64.039         140.119         263.778         263.778         356.271         427.678         427.678         471.697
   50          65.318          65.318         142.191         261.861         261.861         353.284         428.007         428.007         475.464
   51          66.587          66.587         144.230         259.930         259.930         350.221         428.337         428.337         479.167
   52          67.847          67.847         146.235         257.988         257.988         347.081         428.668         428.668         482.804
   53          69.096          69.096         148.205         256.036         256.036         343.866         428.998         428.998         486.373
   54          70.336          70.336         150.142         254.075         254.075         340.577         429.327         429.327         489.872
   55          71.564          71.564         152.044         252.108         252.108         337.216         429.656         429.656         493.298
   56          72.781          72.781         153.911         250.135         250.135         333.784         429.984         429.984         496.651
   57          73.986          73.986         155.745         248.159         248.159         330.284         430.310         430.310         499.928
   58          75.179          75.179         157.543         246.181         246.181         326.717         430.635         430.635         503.130
   59          76.358          76.358         159.307         244.203         244.203         323.085         430.958         430.958         506.253
   60          77.524          77.524         161.035         242.227         242.227         319.393         431.278         431.278         509.299
   61          78.677          78.677         162.728         240.255         240.255         315.641         431.596         431.596         512.265
   62          79.815          79.815         164.386         238.287         238.287         311.834         431.911         431.911         515.151
   63          80.938          80.938         166.008         236.327         236.327         307.974         432.223         432.223         517.957
   64          82.046          82.046         167.594         234.377         234.377         304.066         432.531         432.531         520.682
   65          83.138          83.138         169.143         232.437         232.437         300.113         432.836         432.836         523.326
   66          84.214          84.214         170.656         230.510         230.510         296.120         433.136         433.136         525.889
   67          85.273          85.273         172.132         228.598         228.598         292.091         433.432         433.432         528.371
   68          86.315          86.315         173.571         226.703         226.703         288.030         433.724         433.724         530.771
   69          87.340          87.340         174.972         224.827         224.827         283.944         434.010         434.010         533.090
   70          88.346          88.346         176.336         222.973         222.973         279.837         434.291         434.291         535.328
   71          89.333          89.333         177.661         221.141         221.141         275.716         434.567         434.567         537.486
   72          90.301          90.301         178.948         219.336         219.336         271.587         434.836         434.836         539.564
   73          91.250          91.250         180.196         217.557         217.557         267.456         435.100         435.100         541.562
   74          92.177          92.177         181.405         215.809         215.809         263.332         435.357         435.357         543.480
   75          93.084          93.084         182.574         214.093         214.093         259.220         435.607         435.607         545.320
   76          93.969          93.969         183.704         212.412         212.412         255.129         435.851         435.851         547.082
   77          94.832          94.832         184.792         210.767         210.767         251.068         436.087         436.087         548.766
   78          95.671          95.671         185.841         209.161         209.161         247.045         436.316         436.316         550.374
   79          96.487          96.487         186.848         207.598         207.598         243.070         436.537         436.537         551.906
   80          97.278          97.278         187.813         206.078         206.078         239.151         436.750         436.750         553.363
   81          98.043          98.043         188.737         204.605         204.605         235.301         436.955         436.955         554.745
   82          98.781          98.781         189.619         203.181         203.181         231.528         437.152         437.152         556.053
   83          99.492          99.492         190.458         201.809         201.809         227.844         437.340         437.340         557.289
   84         100.175         100.175         191.253         200.492         200.492         224.261         437.519         437.519         558.452
   85         100.828         100.828         192.006         199.231         199.231         220.790         437.689         437.689         559.545
   86         101.450         101.450         192.715         198.030         198.030         217.443         437.849         437.849         560.566
   87         102.040         102.040         193.380         196.891         196.891         214.233         438.001         438.001         561.518
   88         102.597         102.597         194.001         195.816         195.816         211.172         438.142         438.142         562.400
   89         103.119         103.119         194.577         194.809         194.809         208.273         438.274         438.274         563.214
   90         103.606         103.606         193.871         193.871         195.108         205.547         438.396         438.396         563.961
   91         104.056         104.056         193.006         193.006         195.594         203.009         438.507         438.507         564.640
   92         104.468         104.468         192.215         192.215         196.034         200.669         438.609         438.609         565.253
   93         104.840         104.840         191.500         191.500         196.429         198.539         438.700         438.700         565.799
   94         105.172         105.172         190.864         190.864         196.630         196.777         438.781         438.781         566.280
   95         105.462         105.462         190.309         190.309         194.953         197.080         438.851         438.851         566.696
   96         105.709         105.709         189.836         189.836         193.517         197.336         438.910         438.910         567.048
   97         105.912         105.912         189.447         189.447         192.330         197.546         438.959         438.959         567.335
   98         106.071         106.071         189.143         189.143         191.400         197.710         438.997         438.997         567.558
   99         106.186         106.186         188.926         188.926         190.731         197.827         439.024         439.024         567.717
  100         106.254         106.254         188.795         188.795         190.328         197.897         439.040         439.040         567.812
  101         106.277         106.277         188.751         188.751         190.193         197.920         439.046         439.046         567.844
  102         106.287         106.308         188.440         188.799         190.499         197.996         439.021         439.055         567.836
  103         106.318         106.402         187.825         188.935         191.097         198.231         438.944         439.082         567.811
  104         106.369         106.557         187.131         189.136         191.764         198.644         438.818         439.128         567.771
  105         106.441         106.774         186.408         189.368         192.447         199.268         438.640         439.191         567.714
  106         106.532         107.051         185.672         189.591         193.133         200.134         438.411         439.272         567.641
  107         106.642         107.389         184.929         189.771         193.816         201.270         438.130         439.371         567.553
  108         106.772         107.785         184.181         189.885         194.494         202.692         437.797         439.487         567.449
  109         106.920         108.239         183.430         189.920         195.163         204.400         437.412         439.620         567.330
  110         107.085         108.750         182.679         189.876         195.824         206.386         436.974         439.769         567.197
  111         107.267         109.316         181.927         189.758         196.475         208.634         436.482         439.934         567.049
  112         107.465         109.936         181.177         189.572         197.115         211.125         435.937         440.115         566.887
  113         107.679         110.607         180.430         189.325         197.745         213.840         435.336         440.310         566.712
  114         107.907         111.328         179.685         189.022         198.363         216.760         434.680         440.519         566.525
  115         108.147         112.098         178.945         188.670         198.968         219.868         433.967         440.742         566.325
  116         108.400         112.914         178.210         188.271         199.561         223.147         433.197         440.978         566.114
  117         108.665         113.775         177.481         187.829         200.141         226.580         432.369         441.226         565.892
  118         108.939         114.677         176.760         187.348         200.708         230.154         431.481         441.484         565.660
  119         109.222         115.620         176.046         186.828         201.261         233.854         430.534         441.753         565.419
  120         109.512         116.602         175.342         186.271         201.800         237.666         429.525         442.031         565.169
  121         109.809         117.619         174.648         185.680         202.324         241.577         428.454         442.318         564.912
  122         110.111         118.671         173.964         185.055         202.834         245.576         427.321         442.611         564.648
  123         110.416         119.754         173.293         184.397         203.328         249.650         426.122         442.911         564.379
  124         110.725         120.868         172.634         183.708         203.808         253.788         424.859         443.216         564.105
  125         111.035         122.009         171.990         182.988         204.272         257.981         423.529         443.525         563.828
  126         111.345         123.176         171.360         182.238         204.720         262.219         422.132         443.836         563.547
  127         111.654         124.367         170.746         181.459         205.152         266.491         420.666         444.149         563.266
  128         111.961         125.580         170.148         180.652         205.567         270.789         419.131         444.463         562.984
  129         112.264         126.813         169.568         179.816         205.967         275.106         417.525         444.775         562.703
  130         112.563         128.065         169.007         178.953         206.349         279.432         415.847         445.086         562.423
  131         112.856         129.332         168.465         178.064         206.715         283.761         414.097         445.392         562.147
  132         113.142         130.614         167.943         177.150         207.065         288.086         412.273         445.695         561.874
  133         113.420         131.909         167.443         176.209         207.397         292.400         410.374         445.991         561.607
