#   T(K)    C_v(k_B/fu)        Gamma     alpha_v*10^6(K^-1)   E_th(eV)                       P_th(GPa)
#                                                                         ----------------------------------------------
#                                                                          {sum G_i.U_iV}  {int G.C_v/V dT}    {G.U/V}
# ----------------------------------------------------------------------------------------------------------------------
    10           0.009           0.492           0.006           0.159           0.659           0.000           0.312
    20           0.158           0.658           0.149           0.159           0.659           0.000           0.417
    30           0.511           0.742           0.541           0.159           0.660           0.002           0.471
    40           0.950           0.789           1.070           0.160           0.662           0.004           0.503
    50           1.400           0.831           1.659           0.161           0.665           0.008           0.533
    60           1.839           0.870           2.282           0.162           0.670           0.014           0.563
    70           2.266           0.904           2.923           0.164           0.676           0.021           0.591
    80           2.681           0.933           3.568           0.166           0.684           0.029           0.618
    90           3.084           0.956           4.206           0.169           0.693           0.040           0.643
   100           3.474           0.974           4.827           0.171           0.704           0.051           0.666
   110           3.847           0.988           5.421           0.174           0.717           0.064           0.688
   120           4.202           0.998           5.984           0.178           0.730           0.079           0.709
   130           4.536           1.006           6.512           0.182           0.745           0.094           0.729
   140           4.849           1.012           7.002           0.186           0.762           0.111           0.750
   150           5.141           1.017           7.456           0.190           0.779           0.129           0.771
   160           5.410           1.020           7.874           0.195           0.798           0.148           0.792
   170           5.659           1.023           8.257           0.199           0.817           0.168           0.814
   180           5.888           1.025           8.609           0.204           0.837           0.189           0.836
   190           6.099           1.026           8.930           0.210           0.858           0.210           0.858
   200           6.292           1.027           9.224           0.215           0.880           0.233           0.881
   210           6.470           1.028           9.492           0.220           0.903           0.255           0.904
   220           6.632           1.029           9.738           0.226           0.926           0.279           0.928
   230           6.782           1.030           9.962           0.232           0.950           0.303           0.952
   240           6.919           1.030          10.168           0.238           0.974           0.327           0.977
   250           7.045           1.030          10.357           0.244           0.999           0.352           1.002
   260           7.161           1.030          10.530           0.250           1.024           0.378           1.027
   270           7.268           1.031          10.689           0.256           1.050           0.403           1.053
   280           7.367           1.031          10.835           0.262           1.075           0.430           1.079
   290           7.458           1.031          10.970           0.269           1.102           0.456           1.106
   300           7.542           1.031          11.095           0.275           1.128           0.483           1.132
   310           7.620           1.031          11.210           0.282           1.155           0.510           1.159
   320           7.692           1.031          11.316           0.288           1.182           0.537           1.186
   330           7.759           1.031          11.415           0.295           1.210           0.565           1.214
   340           7.821           1.031          11.506           0.302           1.237           0.592           1.241
   350           7.879           1.031          11.591           0.308           1.265           0.620           1.269
   360           7.933           1.031          11.671           0.315           1.293           0.648           1.297
   370           7.983           1.031          11.744           0.322           1.321           0.677           1.325
   380           8.030           1.031          11.813           0.329           1.350           0.705           1.354
   390           8.074           1.031          11.878           0.336           1.378           0.734           1.382
   400           8.115           1.031          11.938           0.343           1.407           0.762           1.411
   410           8.153           1.031          11.994           0.350           1.436           0.791           1.440
   420           8.189           1.031          12.047           0.357           1.465           0.820           1.469
   430           8.223           1.031          12.097           0.364           1.494           0.850           1.498
   440           8.255           1.031          12.143           0.371           1.523           0.879           1.527
   450           8.285           1.031          12.187           0.378           1.552           0.908           1.556
   460           8.314           1.031          12.228           0.385           1.582           0.938           1.586
   470           8.340           1.031          12.267           0.393           1.611           0.967           1.615
   480           8.366           1.031          12.304           0.400           1.641           0.997           1.645
   490           8.389           1.031          12.339           0.407           1.671           1.027           1.674
   500           8.412           1.031          12.372           0.414           1.700           1.056           1.704
   510           8.433           1.031          12.403           0.422           1.730           1.086           1.734
   520           8.454           1.031          12.432           0.429           1.760           1.116           1.764
   530           8.473           1.031          12.460           0.436           1.790           1.146           1.794
   540           8.491           1.031          12.487           0.443           1.820           1.176           1.824
   550           8.508           1.031          12.512           0.451           1.850           1.207           1.854
   560           8.525           1.031          12.536           0.458           1.881           1.237           1.884
   570           8.540           1.031          12.559           0.465           1.911           1.267           1.914
   580           8.555           1.031          12.580           0.473           1.941           1.297           1.944
   590           8.570           1.031          12.601           0.480           1.971           1.328           1.975
   600           8.583           1.031          12.621           0.488           2.002           1.358           2.005
   610           8.596           1.030          12.639           0.495           2.032           1.389           2.035
   620           8.608           1.030          12.657           0.502           2.063           1.419           2.066
   630           8.620           1.030          12.674           0.510           2.093           1.450           2.096
   640           8.631           1.030          12.691           0.517           2.124           1.480           2.127
   650           8.642           1.030          12.706           0.525           2.154           1.511           2.157
   660           8.653           1.030          12.721           0.532           2.185           1.541           2.188
   670           8.662           1.030          12.736           0.540           2.216           1.572           2.219
   680           8.672           1.030          12.749           0.547           2.246           1.603           2.249
   690           8.681           1.030          12.763           0.555           2.277           1.634           2.280
   700           8.690           1.030          12.775           0.562           2.308           1.664           2.311
   710           8.698           1.030          12.787           0.570           2.339           1.695           2.341
   720           8.706           1.030          12.799           0.577           2.370           1.726           2.372
   730           8.714           1.030          12.810           0.585           2.400           1.757           2.403
   740           8.721           1.030          12.821           0.592           2.431           1.788           2.434
   750           8.729           1.030          12.831           0.600           2.462           1.819           2.465
   760           8.735           1.030          12.841           0.607           2.493           1.850           2.496
   770           8.742           1.030          12.851           0.615           2.524           1.881           2.527
   780           8.748           1.030          12.860           0.622           2.555           1.912           2.558
   790           8.755           1.030          12.869           0.630           2.586           1.943           2.589
   800           8.761           1.030          12.878           0.637           2.617           1.974           2.620
   810           8.766           1.030          12.886           0.645           2.648           2.005           2.651
   820           8.772           1.030          12.894           0.652           2.679           2.036           2.682
   830           8.777           1.030          12.902           0.660           2.710           2.067           2.713
   840           8.782           1.030          12.909           0.668           2.741           2.098           2.744
   850           8.787           1.030          12.916           0.675           2.773           2.129           2.775
   860           8.792           1.030          12.923           0.683           2.804           2.160           2.806
   870           8.797           1.030          12.930           0.690           2.835           2.191           2.837
   880           8.801           1.030          12.937           0.698           2.866           2.223           2.868
   890           8.805           1.030          12.943           0.705           2.897           2.254           2.899
   900           8.810           1.030          12.949           0.713           2.928           2.285           2.931
   910           8.814           1.030          12.955           0.721           2.960           2.316           2.962
   920           8.818           1.030          12.961           0.728           2.991           2.347           2.993
   930           8.822           1.030          12.966           0.736           3.022           2.379           3.024
   940           8.825           1.030          12.971           0.743           3.053           2.410           3.055
   950           8.829           1.030          12.977           0.751           3.085           2.441           3.087
   960           8.832           1.030          12.982           0.759           3.116           2.473           3.118
   970           8.836           1.030          12.986           0.766           3.147           2.504           3.149
   980           8.839           1.030          12.991           0.774           3.178           2.535           3.180
   990           8.842           1.030          12.996           0.781           3.210           2.566           3.212
  1000           8.845           1.030          13.000           0.789           3.241           2.598           3.243
  1010           8.848           1.030          13.005           0.797           3.272           2.629           3.274
  1020           8.851           1.030          13.009           0.804           3.304           2.660           3.306
  1030           8.854           1.030          13.013           0.812           3.335           2.692           3.337
  1040           8.857           1.030          13.017           0.820           3.366           2.723           3.368
  1050           8.859           1.030          13.021           0.827           3.398           2.755           3.400
  1060           8.862           1.030          13.025           0.835           3.429           2.786           3.431
  1070           8.864           1.030          13.028           0.842           3.461           2.817           3.462
  1080           8.867           1.030          13.032           0.850           3.492           2.849           3.494
  1090           8.869           1.030          13.035           0.858           3.523           2.880           3.525
  1100           8.872           1.030          13.039           0.865           3.555           2.912           3.557
  1110           8.874           1.030          13.042           0.873           3.586           2.943           3.588
  1120           8.876           1.030          13.045           0.881           3.618           2.974           3.619
  1130           8.878           1.030          13.048           0.888           3.649           3.006           3.651
  1140           8.880           1.030          13.051           0.896           3.681           3.037           3.682
  1150           8.882           1.030          13.054           0.904           3.712           3.069           3.714
  1160           8.884           1.030          13.057           0.911           3.743           3.100           3.745
  1170           8.886           1.030          13.060           0.919           3.775           3.132           3.777
  1180           8.888           1.030          13.063           0.927           3.806           3.163           3.808
  1190           8.890           1.030          13.065           0.934           3.838           3.195           3.840
  1200           8.892           1.030          13.068           0.942           3.869           3.226           3.871
  1210           8.894           1.030          13.070           0.950           3.901           3.258           3.903
  1220           8.895           1.030          13.073           0.957           3.932           3.289           3.934
  1230           8.897           1.030          13.075           0.965           3.964           3.321           3.966
  1240           8.899           1.030          13.078           0.973           3.995           3.352           3.997
  1250           8.900           1.030          13.080           0.980           4.027           3.384           4.029
  1260           8.902           1.030          13.082           0.988           4.058           3.415           4.060
  1270           8.903           1.030          13.084           0.996           4.090           3.447           4.092
  1280           8.905           1.030          13.087           1.003           4.121           3.478           4.123
  1290           8.906           1.030          13.089           1.011           4.153           3.510           4.155
  1300           8.908           1.030          13.091           1.019           4.185           3.541           4.186
  1310           8.909           1.030          13.093           1.026           4.216           3.573           4.218
  1320           8.910           1.030          13.095           1.034           4.248           3.604           4.249
  1330           8.912           1.030          13.097           1.042           4.279           3.636           4.281
  1340           8.913           1.030          13.098           1.049           4.311           3.668           4.312
  1350           8.914           1.030          13.100           1.057           4.342           3.699           4.344
  1360           8.916           1.030          13.102           1.065           4.374           3.731           4.375
  1370           8.917           1.030          13.104           1.072           4.405           3.762           4.407
  1380           8.918           1.030          13.106           1.080           4.437           3.794           4.439
  1390           8.919           1.030          13.107           1.088           4.469           3.825           4.470
  1400           8.920           1.030          13.109           1.095           4.500           3.857           4.502
  1410           8.921           1.030          13.110           1.103           4.532           3.889           4.533
  1420           8.923           1.030          13.112           1.111           4.563           3.920           4.565
  1430           8.924           1.030          13.114           1.119           4.595           3.952           4.596
  1440           8.925           1.030          13.115           1.126           4.627           3.983           4.628
  1450           8.926           1.030          13.117           1.134           4.658           4.015           4.660
  1460           8.927           1.030          13.118           1.142           4.690           4.047           4.691
  1470           8.928           1.030          13.119           1.149           4.721           4.078           4.723
  1480           8.929           1.030          13.121           1.157           4.753           4.110           4.754
  1490           8.930           1.030          13.122           1.165           4.785           4.142           4.786
  1500           8.931           1.030          13.124           1.172           4.816           4.173           4.818
  1510           8.931           1.030          13.125           1.180           4.848           4.205           4.849
  1520           8.932           1.030          13.126           1.188           4.880           4.236           4.881
  1530           8.933           1.030          13.127           1.195           4.911           4.268           4.913
  1540           8.934           1.030          13.129           1.203           4.943           4.300           4.944
  1550           8.935           1.030          13.130           1.211           4.974           4.331           4.976
  1560           8.936           1.030          13.131           1.219           5.006           4.363           5.007
  1570           8.937           1.030          13.132           1.226           5.038           4.395           5.039
  1580           8.937           1.030          13.133           1.234           5.069           4.426           5.071
  1590           8.938           1.030          13.135           1.242           5.101           4.458           5.102
  1600           8.939           1.030          13.136           1.249           5.133           4.490           5.134
  1610           8.940           1.030          13.137           1.257           5.164           4.521           5.166
  1620           8.940           1.030          13.138           1.265           5.196           4.553           5.197
  1630           8.941           1.030          13.139           1.272           5.228           4.585           5.229
  1640           8.942           1.030          13.140           1.280           5.259           4.616           5.261
