# GW Macroscopic dielectric function without local field effects 
# Scissor operator energy =  5.2000 [eV]
# Tolerance =  0.0200 0.0000
# npweps  = 27
# npwwfn  = 331
# nbands  = 7
# loband  = 2
# nkibz   = 3
# nkbz    = 8
# Lorentzian broadening =  0.1500 [eV]
# List of q-points for the optical limit:
# q =  0.707858, 0.000000, 0.000000, [Reduced coords] 
# q =  0.000000, 0.707858, 0.000000, [Reduced coords] 
# q =  0.000000, 0.000000, 0.707858, [Reduced coords] 
# q =  0.000000, 0.613023, 0.613023, [Reduced coords] 
# q =  0.613023, 0.000000, 0.613023, [Reduced coords] 
# q =  0.613023, 0.613023, 0.000000, [Reduced coords] 
# omega [eV]    RE(eps(q=1)) IM(eps(q=1) RE(eps(q=2) ) ... DOS   IDOS
  0.000    1.6221    0.0000    1.6221    0.0000    1.6223    0.0000    1.6223    0.0000    1.6222    0.0000    1.6221    0.0000    0.0000    0.0000
  0.100    1.6222    0.0001    1.6221    0.0001    1.6224    0.0001    1.6224    0.0001    1.6222    0.0001    1.6221    0.0001    0.0000    0.0000
  0.200    1.6222    0.0001    1.6222    0.0001    1.6224    0.0001    1.6224    0.0001    1.6223    0.0001    1.6222    0.0001    0.0000    0.0000
  0.300    1.6223    0.0002    1.6223    0.0002    1.6226    0.0002    1.6225    0.0002    1.6224    0.0002    1.6223    0.0002    0.0000    0.0000
  0.400    1.6225    0.0003    1.6225    0.0003    1.6227    0.0003    1.6227    0.0003    1.6226    0.0003    1.6225    0.0003    0.0000    0.0000
  0.500    1.6227    0.0004    1.6227    0.0004    1.6229    0.0004    1.6229    0.0004    1.6228    0.0004    1.6227    0.0004    0.0000    0.0000
  0.600    1.6230    0.0004    1.6230    0.0004    1.6232    0.0004    1.6232    0.0004    1.6230    0.0004    1.6230    0.0004    0.0000    0.0000
  0.700    1.6233    0.0005    1.6233    0.0005    1.6235    0.0005    1.6235    0.0005    1.6234    0.0005    1.6233    0.0005    0.0000    0.0000
  0.800    1.6237    0.0006    1.6236    0.0006    1.6239    0.0006    1.6239    0.0006    1.6237    0.0006    1.6236    0.0006    0.0000    0.0000
  0.900    1.6241    0.0006    1.6240    0.0006    1.6243    0.0006    1.6243    0.0006    1.6241    0.0006    1.6240    0.0006    0.0000    0.0000
  1.000    1.6245    0.0007    1.6245    0.0007    1.6247    0.0007    1.6247    0.0007    1.6246    0.0007    1.6245    0.0007    0.0000    0.0000
  1.100    1.6250    0.0008    1.6250    0.0008    1.6252    0.0008    1.6252    0.0008    1.6251    0.0008    1.6250    0.0008    0.0000    0.0000
  1.200    1.6256    0.0009    1.6256    0.0009    1.6258    0.0009    1.6258    0.0009    1.6256    0.0009    1.6256    0.0009    0.0000    0.0000
  1.300    1.6262    0.0009    1.6262    0.0009    1.6264    0.0009    1.6264    0.0009    1.6262    0.0009    1.6262    0.0009    0.0000    0.0000
  1.400    1.6268    0.0010    1.6268    0.0010    1.6270    0.0010    1.6270    0.0010    1.6269    0.0010    1.6268    0.0010    0.0000    0.0000
  1.500    1.6275    0.0011    1.6275    0.0011    1.6278    0.0011    1.6278    0.0011    1.6276    0.0011    1.6275    0.0011    0.0000    0.0000
  1.600    1.6283    0.0012    1.6283    0.0012    1.6285    0.0012    1.6285    0.0012    1.6283    0.0012    1.6283    0.0012    0.0000    0.0000
  1.700    1.6291    0.0012    1.6291    0.0012    1.6293    0.0012    1.6293    0.0012    1.6292    0.0012    1.6291    0.0012    0.0000    0.0000
  1.800    1.6300    0.0013    1.6299    0.0013    1.6302    0.0013    1.6302    0.0013    1.6300    0.0013    1.6299    0.0013    0.0000    0.0000
  1.900    1.6309    0.0014    1.6308    0.0014    1.6311    0.0014    1.6311    0.0014    1.6309    0.0014    1.6308    0.0014    0.0000    0.0000
  2.000    1.6318    0.0015    1.6318    0.0015    1.6320    0.0015    1.6320    0.0015    1.6319    0.0015    1.6318    0.0015    0.0000    0.0000
  2.100    1.6328    0.0016    1.6328    0.0016    1.6330    0.0016    1.6330    0.0016    1.6329    0.0016    1.6328    0.0016    0.0000    0.0000
  2.200    1.6339    0.0016    1.6339    0.0016    1.6341    0.0016    1.6341    0.0016    1.6340    0.0016    1.6339    0.0016    0.0000    0.0000
  2.300    1.6350    0.0017    1.6350    0.0017    1.6352    0.0017    1.6352    0.0017    1.6351    0.0017    1.6350    0.0017    0.0000    0.0000
  2.400    1.6362    0.0018    1.6362    0.0018    1.6364    0.0018    1.6364    0.0018    1.6362    0.0018    1.6362    0.0018    0.0000    0.0000
  2.500    1.6374    0.0019    1.6374    0.0019    1.6376    0.0019    1.6376    0.0019    1.6375    0.0019    1.6374    0.0019    0.0000    0.0000
  2.600    1.6387    0.0020    1.6387    0.0020    1.6389    0.0020    1.6389    0.0020    1.6388    0.0020    1.6387    0.0020    0.0000    0.0000
  2.700    1.6401    0.0021    1.6400    0.0021    1.6403    0.0021    1.6403    0.0021    1.6401    0.0021    1.6400    0.0021    0.0000    0.0000
  2.800    1.6414    0.0021    1.6414    0.0021    1.6417    0.0021    1.6417    0.0021    1.6415    0.0021    1.6414    0.0021    0.0000    0.0000
  2.900    1.6429    0.0022    1.6429    0.0022    1.6431    0.0022    1.6431    0.0022    1.6430    0.0022    1.6429    0.0022    0.0000    0.0000
  3.000    1.6444    0.0023    1.6444    0.0023    1.6446    0.0023    1.6446    0.0023    1.6445    0.0023    1.6444    0.0023    0.0000    0.0000
  3.100    1.6460    0.0024    1.6460    0.0024    1.6462    0.0024    1.6462    0.0024    1.6460    0.0024    1.6460    0.0024    0.0000    0.0000
  3.200    1.6476    0.0025    1.6476    0.0025    1.6478    0.0025    1.6478    0.0025    1.6477    0.0025    1.6476    0.0025    0.0000    0.0000
  3.300    1.6493    0.0026    1.6493    0.0026    1.6495    0.0026    1.6495    0.0026    1.6494    0.0026    1.6493    0.0026    0.0000    0.0000
  3.400    1.6511    0.0027    1.6510    0.0027    1.6513    0.0027    1.6513    0.0027    1.6511    0.0027    1.6510    0.0027    0.0000    0.0000
  3.500    1.6529    0.0028    1.6529    0.0028    1.6531    0.0028    1.6531    0.0028    1.6529    0.0028    1.6529    0.0028    0.0000    0.0000
  3.600    1.6548    0.0029    1.6548    0.0029    1.6550    0.0029    1.6550    0.0029    1.6548    0.0029    1.6548    0.0029    0.0000    0.0000
  3.700    1.6567    0.0030    1.6567    0.0030    1.6569    0.0030    1.6569    0.0030    1.6568    0.0030    1.6567    0.0030    0.0000    0.0000
  3.800    1.6587    0.0031    1.6587    0.0031    1.6589    0.0031    1.6589    0.0031    1.6588    0.0031    1.6587    0.0031    0.0000    0.0000
  3.900    1.6608    0.0032    1.6608    0.0032    1.6610    0.0032    1.6610    0.0032    1.6609    0.0032    1.6608    0.0032    0.0000    0.0000
  4.000    1.6630    0.0033    1.6629    0.0033    1.6632    0.0033    1.6632    0.0033    1.6630    0.0033    1.6629    0.0033    0.0000    0.0000
  4.100    1.6652    0.0034    1.6652    0.0034    1.6654    0.0034    1.6654    0.0034    1.6652    0.0034    1.6652    0.0034    0.0000    0.0000
  4.200    1.6675    0.0035    1.6675    0.0035    1.6677    0.0035    1.6677    0.0035    1.6675    0.0035    1.6675    0.0035    0.0000    0.0000
  4.300    1.6698    0.0036    1.6698    0.0036    1.6701    0.0036    1.6701    0.0036    1.6699    0.0036    1.6698    0.0036    0.0000    0.0000
  4.400    1.6723    0.0037    1.6723    0.0037    1.6725    0.0037    1.6725    0.0037    1.6723    0.0037    1.6723    0.0037    0.0000    0.0000
  4.500    1.6748    0.0038    1.6748    0.0038    1.6750    0.0038    1.6750    0.0038    1.6749    0.0038    1.6748    0.0038    0.0000    0.0000
  4.600    1.6774    0.0040    1.6774    0.0040    1.6776    0.0040    1.6776    0.0040    1.6774    0.0040    1.6774    0.0040    0.0000    0.0000
  4.700    1.6801    0.0041    1.6800    0.0041    1.6803    0.0041    1.6803    0.0041    1.6801    0.0041    1.6800    0.0041    0.0000    0.0000
  4.800    1.6828    0.0042    1.6828    0.0042    1.6830    0.0042    1.6830    0.0042    1.6829    0.0042    1.6828    0.0042    0.0000    0.0000
  4.900    1.6857    0.0043    1.6856    0.0043    1.6859    0.0043    1.6859    0.0043    1.6857    0.0043    1.6856    0.0043    0.0000    0.0000
  5.000    1.6886    0.0044    1.6886    0.0044    1.6888    0.0044    1.6888    0.0044    1.6886    0.0044    1.6886    0.0044    0.0000    0.0000
  5.100    1.6916    0.0046    1.6916    0.0046    1.6918    0.0046    1.6918    0.0046    1.6916    0.0046    1.6916    0.0046    0.0000    0.0000
  5.200    1.6947    0.0047    1.6947    0.0047    1.6949    0.0047    1.6949    0.0047    1.6947    0.0047    1.6947    0.0047    0.0000    0.0000
  5.300    1.6979    0.0049    1.6978    0.0049    1.6981    0.0049    1.6981    0.0049    1.6979    0.0049    1.6978    0.0049    0.0000    0.0000
  5.400    1.7011    0.0050    1.7011    0.0050    1.7014    0.0050    1.7014    0.0050    1.7012    0.0050    1.7011    0.0050    0.0000    0.0000
  5.500    1.7045    0.0051    1.7045    0.0051    1.7047    0.0051    1.7047    0.0051    1.7046    0.0051    1.7045    0.0051    0.0000    0.0000
  5.600    1.7080    0.0053    1.7080    0.0053    1.7082    0.0053    1.7082    0.0053    1.7080    0.0053    1.7080    0.0053    0.0000    0.0000
  5.700    1.7116    0.0054    1.7115    0.0054    1.7118    0.0054    1.7118    0.0054    1.7116    0.0054    1.7115    0.0054    0.0000    0.0000
  5.800    1.7152    0.0056    1.7152    0.0056    1.7155    0.0056    1.7155    0.0056    1.7153    0.0056    1.7152    0.0056    0.0000    0.0000
  5.900    1.7190    0.0058    1.7190    0.0058    1.7192    0.0058    1.7192    0.0058    1.7191    0.0058    1.7190    0.0058    0.0000    0.0000
  6.000    1.7229    0.0059    1.7229    0.0059    1.7231    0.0059    1.7231    0.0059    1.7230    0.0059    1.7229    0.0059    0.0000    0.0000
  6.100    1.7269    0.0061    1.7269    0.0061    1.7271    0.0061    1.7271    0.0061    1.7270    0.0061    1.7269    0.0061    0.0000    0.0000
  6.200    1.7310    0.0063    1.7310    0.0063    1.7313    0.0063    1.7313    0.0063    1.7311    0.0063    1.7310    0.0063    0.0000    0.0000
  6.300    1.7353    0.0065    1.7353    0.0065    1.7355    0.0065    1.7355    0.0065    1.7353    0.0065    1.7353    0.0065    0.0000    0.0000
  6.400    1.7396    0.0066    1.7396    0.0066    1.7399    0.0066    1.7399    0.0066    1.7397    0.0066    1.7396    0.0066    0.0000    0.0000
  6.500    1.7441    0.0068    1.7441    0.0068    1.7443    0.0068    1.7443    0.0068    1.7442    0.0068    1.7441    0.0068    0.0000    0.0000
  6.600    1.7488    0.0070    1.7487    0.0070    1.7490    0.0070    1.7490    0.0070    1.7488    0.0070    1.7487    0.0070    0.0000    0.0000
  6.700    1.7535    0.0072    1.7535    0.0072    1.7537    0.0072    1.7537    0.0072    1.7536    0.0072    1.7535    0.0072    0.0000    0.0000
  6.800    1.7584    0.0075    1.7584    0.0075    1.7586    0.0075    1.7586    0.0075    1.7585    0.0075    1.7584    0.0075    0.0000    0.0000
  6.900    1.7634    0.0077    1.7634    0.0077    1.7637    0.0077    1.7636    0.0077    1.7635    0.0077    1.7634    0.0077    0.0000    0.0000
  7.000    1.7686    0.0079    1.7686    0.0079    1.7688    0.0079    1.7688    0.0079    1.7687    0.0079    1.7686    0.0079    0.0000    0.0000
  7.100    1.7740    0.0081    1.7739    0.0081    1.7742    0.0081    1.7742    0.0081    1.7740    0.0081    1.7739    0.0081    0.0000    0.0000
  7.200    1.7795    0.0084    1.7794    0.0084    1.7797    0.0084    1.7797    0.0084    1.7795    0.0084    1.7794    0.0084    0.0000    0.0000
  7.300    1.7851    0.0086    1.7851    0.0086    1.7853    0.0086    1.7853    0.0086    1.7852    0.0086    1.7851    0.0086    0.0000    0.0000
  7.400    1.7909    0.0089    1.7909    0.0089    1.7912    0.0089    1.7912    0.0089    1.7910    0.0089    1.7909    0.0089    0.0000    0.0000
  7.500    1.7969    0.0092    1.7969    0.0092    1.7972    0.0092    1.7972    0.0092    1.7970    0.0092    1.7969    0.0092    0.0000    0.0000
  7.600    1.8031    0.0094    1.8031    0.0094    1.8034    0.0094    1.8033    0.0094    1.8032    0.0094    1.8031    0.0094    0.0000    0.0000
  7.700    1.8095    0.0097    1.8095    0.0097    1.8097    0.0097    1.8097    0.0097    1.8096    0.0097    1.8095    0.0097    0.0000    0.0000
  7.800    1.8161    0.0100    1.8161    0.0100    1.8163    0.0100    1.8163    0.0100    1.8161    0.0100    1.8161    0.0100    0.0000    0.0000
  7.900    1.8229    0.0103    1.8228    0.0103    1.8231    0.0103    1.8231    0.0103    1.8229    0.0103    1.8228    0.0103    0.0000    0.0000
  8.000    1.8299    0.0107    1.8298    0.0107    1.8301    0.0107    1.8301    0.0107    1.8299    0.0107    1.8298    0.0107    0.0000    0.0000
  8.100    1.8371    0.0110    1.8371    0.0110    1.8373    0.0110    1.8373    0.0110    1.8371    0.0110    1.8371    0.0110    0.0000    0.0000
  8.200    1.8445    0.0114    1.8445    0.0114    1.8447    0.0114    1.8447    0.0114    1.8446    0.0114    1.8445    0.0114    0.0000    0.0000
  8.300    1.8522    0.0117    1.8522    0.0117    1.8524    0.0117    1.8524    0.0117    1.8523    0.0117    1.8522    0.0117    0.0000    0.0000
  8.400    1.8601    0.0121    1.8601    0.0121    1.8604    0.0121    1.8604    0.0121    1.8602    0.0121    1.8601    0.0121    0.0000    0.0000
  8.500    1.8683    0.0125    1.8683    0.0125    1.8686    0.0125    1.8685    0.0125    1.8684    0.0125    1.8683    0.0125    0.0000    0.0000
  8.600    1.8768    0.0129    1.8768    0.0129    1.8770    0.0129    1.8770    0.0129    1.8769    0.0129    1.8768    0.0129    0.0000    0.0000
  8.700    1.8856    0.0134    1.8855    0.0134    1.8858    0.0134    1.8858    0.0134    1.8856    0.0134    1.8855    0.0134    0.0000    0.0000
  8.800    1.8946    0.0138    1.8946    0.0138    1.8948    0.0138    1.8948    0.0138    1.8947    0.0138    1.8946    0.0138    0.0000    0.0000
  8.900    1.9040    0.0143    1.9040    0.0143    1.9042    0.0143    1.9042    0.0143    1.9040    0.0143    1.9040    0.0143    0.0000    0.0000
  9.000    1.9137    0.0148    1.9137    0.0148    1.9139    0.0148    1.9139    0.0148    1.9137    0.0148    1.9137    0.0148    0.0000    0.0000
  9.100    1.9237    0.0154    1.9237    0.0154    1.9239    0.0154    1.9239    0.0154    1.9238    0.0154    1.9237    0.0154    0.0000    0.0000
  9.200    1.9341    0.0159    1.9341    0.0159    1.9343    0.0159    1.9343    0.0159    1.9342    0.0159    1.9341    0.0159    0.0000    0.0000
  9.300    1.9449    0.0165    1.9449    0.0165    1.9451    0.0165    1.9451    0.0165    1.9450    0.0165    1.9449    0.0165    0.0000    0.0000
  9.400    1.9561    0.0171    1.9561    0.0171    1.9563    0.0171    1.9563    0.0171    1.9562    0.0171    1.9561    0.0171    0.0000    0.0000
  9.500    1.9677    0.0178    1.9677    0.0178    1.9679    0.0178    1.9679    0.0178    1.9678    0.0178    1.9677    0.0178    0.0000    0.0000
  9.600    1.9798    0.0185    1.9797    0.0185    1.9800    0.0185    1.9800    0.0185    1.9798    0.0185    1.9797    0.0185    0.0000    0.0000
  9.700    1.9923    0.0192    1.9923    0.0192    1.9925    0.0192    1.9925    0.0192    1.9923    0.0192    1.9923    0.0192    0.0000    0.0000
  9.800    2.0053    0.0200    2.0053    0.0200    2.0055    0.0200    2.0055    0.0200    2.0054    0.0200    2.0053    0.0200    0.0000    0.0000
  9.900    2.0189    0.0208    2.0188    0.0208    2.0191    0.0208    2.0191    0.0208    2.0189    0.0208    2.0188    0.0208    0.0000    0.0000
 10.000    2.0330    0.0216    2.0330    0.0216    2.0332    0.0216    2.0332    0.0216    2.0330    0.0216    2.0330    0.0216    0.0000    0.0000
 10.100    2.0477    0.0226    2.0477    0.0226    2.0479    0.0226    2.0479    0.0226    2.0477    0.0226    2.0477    0.0226    0.0000    0.0000
 10.200    2.0630    0.0235    2.0630    0.0235    2.0632    0.0235    2.0632    0.0235    2.0631    0.0235    2.0630    0.0235    0.0000    0.0000
 10.300    2.0790    0.0246    2.0790    0.0246    2.0792    0.0246    2.0792    0.0246    2.0791    0.0246    2.0790    0.0246    0.0000    0.0000
 10.400    2.0958    0.0257    2.0957    0.0257    2.0960    0.0257    2.0960    0.0257    2.0958    0.0257    2.0957    0.0257    0.0000    0.0000
 10.500    2.1132    0.0269    2.1132    0.0269    2.1135    0.0269    2.1135    0.0269    2.1133    0.0269    2.1132    0.0269    0.0000    0.0000
 10.600    2.1316    0.0282    2.1315    0.0282    2.1318    0.0282    2.1318    0.0282    2.1316    0.0282    2.1315    0.0282    0.0000    0.0000
 10.700    2.1508    0.0296    2.1507    0.0296    2.1510    0.0296    2.1510    0.0296    2.1508    0.0296    2.1507    0.0296    0.0000    0.0000
 10.800    2.1709    0.0311    2.1709    0.0311    2.1711    0.0311    2.1711    0.0311    2.1710    0.0311    2.1709    0.0311    0.0000    0.0000
 10.900    2.1921    0.0327    2.1921    0.0327    2.1923    0.0327    2.1923    0.0327    2.1921    0.0327    2.1921    0.0327    0.0000    0.0000
 11.000    2.2144    0.0344    2.2144    0.0344    2.2146    0.0344    2.2146    0.0344    2.2144    0.0344    2.2144    0.0344    0.0000    0.0000
 11.100    2.2379    0.0363    2.2378    0.0363    2.2381    0.0363    2.2381    0.0363    2.2379    0.0363    2.2378    0.0363    0.0000    0.0000
 11.200    2.2626    0.0383    2.2626    0.0383    2.2629    0.0383    2.2629    0.0383    2.2627    0.0383    2.2626    0.0383    0.0000    0.0000
 11.300    2.2888    0.0406    2.2888    0.0406    2.2891    0.0406    2.2891    0.0406    2.2889    0.0406    2.2888    0.0406    0.0000    0.0000
 11.400    2.3166    0.0430    2.3166    0.0430    2.3168    0.0430    2.3168    0.0430    2.3166    0.0430    2.3166    0.0430    0.0000    0.0000
 11.500    2.3460    0.0457    2.3460    0.0457    2.3463    0.0457    2.3463    0.0457    2.3461    0.0457    2.3460    0.0457    0.0000    0.0000
 11.600    2.3774    0.0487    2.3773    0.0487    2.3776    0.0487    2.3776    0.0487    2.3774    0.0487    2.3773    0.0487    0.0000    0.0000
 11.700    2.4108    0.0520    2.4107    0.0520    2.4110    0.0520    2.4110    0.0520    2.4108    0.0520    2.4107    0.0520    0.0000    0.0000
 11.800    2.4464    0.0557    2.4464    0.0557    2.4467    0.0557    2.4467    0.0557    2.4465    0.0557    2.4464    0.0557    0.0000    0.0000
 11.900    2.4847    0.0598    2.4847    0.0598    2.4849    0.0598    2.4849    0.0598    2.4848    0.0598    2.4847    0.0598    0.0000    0.0000
 12.000    2.5258    0.0645    2.5258    0.0645    2.5261    0.0645    2.5261    0.0645    2.5259    0.0645    2.5258    0.0645    0.0000    0.0000
 12.100    2.5702    0.0698    2.5702    0.0698    2.5704    0.0698    2.5704    0.0698    2.5703    0.0698    2.5702    0.0698    0.0000    0.0000
 12.200    2.6183    0.0758    2.6182    0.0758    2.6185    0.0758    2.6185    0.0758    2.6183    0.0758    2.6182    0.0758    0.0000    0.0000
 12.300    2.6705    0.0827    2.6705    0.0827    2.6707    0.0827    2.6707    0.0827    2.6706    0.0827    2.6705    0.0827    0.0000    0.0000
 12.400    2.7276    0.0907    2.7276    0.0907    2.7279    0.0907    2.7279    0.0907    2.7277    0.0907    2.7276    0.0907    0.0000    0.0000
 12.500    2.7904    0.1002    2.7904    0.1002    2.7906    0.1002    2.7906    0.1002    2.7905    0.1002    2.7904    0.1002    0.0000    0.0000
 12.600    2.8598    0.1114    2.8598    0.1114    2.8600    0.1114    2.8600    0.1114    2.8599    0.1114    2.8598    0.1114    0.0000    0.0000
 12.700    2.9371    0.1248    2.9371    0.1248    2.9373    0.1248    2.9373    0.1248    2.9371    0.1248    2.9371    0.1248    0.0000    0.0000
 12.800    3.0239    0.1413    3.0238    0.1413    3.0241    0.1413    3.0241    0.1413    3.0239    0.1413    3.0238    0.1413    0.0000    0.0000
 12.900    3.1222    0.1618    3.1222    0.1618    3.1225    0.1618    3.1225    0.1618    3.1223    0.1618    3.1222    0.1618    0.0000    0.0000
