# Macroscopic dielectric function obtained with the BS equation.
#  RPA L0 with KS energies and KS wavefunctions     LOCAL FIELD EFFECTS INCLUDED
# RESONANT-ONLY calculation
# Coulomb term constructed with full W(G1,G2)
# Scissor operator energy =  5.2000 [eV]
# Tolerance =  0.0200 0.0000
# npweps  = 27
# npwwfn  = 331
# nbands  = 7
# loband  = 2
# nkibz   = 3
# nkbz    = 8
# Lorentzian broadening =  0.1500 [eV]
# List of q-points for the optical limit:
# q =  0.707858, 0.000000, 0.000000, [Reduced coords] 
# q =  0.000000, 0.707858, 0.000000, [Reduced coords] 
# q =  0.000000, 0.000000, 0.707858, [Reduced coords] 
# q =  0.000000, 0.613023, 0.613023, [Reduced coords] 
# q =  0.613023, 0.000000, 0.613023, [Reduced coords] 
# q =  0.613023, 0.613023, 0.000000, [Reduced coords] 
# omega [eV]    RE(eps(q=1)) IM(eps(q=1) RE(eps(q=2) ) ... 
  0.000    1.8317    0.0000    1.8317    0.0000    1.8320    0.0000    1.8320    0.0000    1.8318    0.0000    1.8317    0.0000
  0.100    1.8318    0.0002    1.8317    0.0002    1.8321    0.0002    1.8321    0.0002    1.8318    0.0002    1.8317    0.0002
  0.200    1.8320    0.0004    1.8319    0.0004    1.8323    0.0004    1.8322    0.0004    1.8320    0.0004    1.8319    0.0004
  0.300    1.8323    0.0005    1.8322    0.0005    1.8326    0.0005    1.8325    0.0005    1.8323    0.0005    1.8322    0.0005
  0.400    1.8327    0.0007    1.8326    0.0007    1.8330    0.0007    1.8330    0.0007    1.8327    0.0007    1.8326    0.0007
  0.500    1.8332    0.0009    1.8331    0.0009    1.8335    0.0009    1.8335    0.0009    1.8333    0.0009    1.8332    0.0009
  0.600    1.8339    0.0011    1.8338    0.0011    1.8342    0.0011    1.8342    0.0011    1.8339    0.0011    1.8338    0.0011
  0.700    1.8347    0.0013    1.8346    0.0013    1.8349    0.0013    1.8349    0.0013    1.8347    0.0013    1.8346    0.0013
  0.800    1.8356    0.0014    1.8355    0.0014    1.8358    0.0014    1.8358    0.0014    1.8356    0.0014    1.8355    0.0014
  0.900    1.8366    0.0016    1.8365    0.0016    1.8369    0.0016    1.8369    0.0016    1.8366    0.0016    1.8365    0.0016
  1.000    1.8377    0.0018    1.8376    0.0018    1.8380    0.0018    1.8380    0.0018    1.8378    0.0018    1.8377    0.0018
  1.100    1.8390    0.0020    1.8389    0.0020    1.8393    0.0020    1.8393    0.0020    1.8390    0.0020    1.8389    0.0020
  1.200    1.8404    0.0022    1.8403    0.0022    1.8407    0.0022    1.8407    0.0022    1.8404    0.0022    1.8403    0.0022
  1.300    1.8419    0.0024    1.8418    0.0024    1.8422    0.0024    1.8422    0.0024    1.8419    0.0024    1.8418    0.0024
  1.400    1.8435    0.0026    1.8435    0.0026    1.8438    0.0026    1.8438    0.0026    1.8436    0.0026    1.8435    0.0026
  1.500    1.8453    0.0028    1.8453    0.0028    1.8456    0.0028    1.8456    0.0028    1.8454    0.0028    1.8453    0.0028
  1.600    1.8472    0.0030    1.8472    0.0030    1.8475    0.0030    1.8475    0.0030    1.8473    0.0030    1.8472    0.0030
  1.700    1.8493    0.0032    1.8492    0.0032    1.8496    0.0032    1.8496    0.0032    1.8493    0.0032    1.8492    0.0032
  1.800    1.8515    0.0034    1.8514    0.0034    1.8518    0.0034    1.8517    0.0034    1.8515    0.0034    1.8514    0.0034
  1.900    1.8538    0.0036    1.8537    0.0036    1.8541    0.0036    1.8541    0.0036    1.8538    0.0036    1.8537    0.0036
  2.000    1.8562    0.0038    1.8562    0.0038    1.8565    0.0038    1.8565    0.0038    1.8563    0.0038    1.8562    0.0038
  2.100    1.8588    0.0040    1.8588    0.0040    1.8591    0.0040    1.8591    0.0040    1.8589    0.0040    1.8588    0.0040
  2.200    1.8616    0.0042    1.8615    0.0042    1.8619    0.0042    1.8619    0.0042    1.8616    0.0042    1.8615    0.0042
  2.300    1.8645    0.0045    1.8644    0.0045    1.8648    0.0045    1.8648    0.0045    1.8645    0.0045    1.8644    0.0045
  2.400    1.8675    0.0047    1.8675    0.0047    1.8678    0.0047    1.8678    0.0047    1.8676    0.0047    1.8675    0.0047
  2.500    1.8707    0.0049    1.8707    0.0049    1.8710    0.0049    1.8710    0.0049    1.8708    0.0049    1.8707    0.0049
  2.600    1.8741    0.0052    1.8740    0.0052    1.8744    0.0052    1.8744    0.0052    1.8741    0.0052    1.8740    0.0052
  2.700    1.8776    0.0054    1.8775    0.0054    1.8779    0.0054    1.8779    0.0054    1.8777    0.0054    1.8776    0.0054
  2.800    1.8813    0.0057    1.8812    0.0057    1.8816    0.0057    1.8816    0.0057    1.8813    0.0057    1.8813    0.0057
  2.900    1.8852    0.0059    1.8851    0.0059    1.8855    0.0059    1.8855    0.0059    1.8852    0.0059    1.8851    0.0059
  3.000    1.8892    0.0062    1.8891    0.0062    1.8895    0.0062    1.8895    0.0062    1.8892    0.0062    1.8891    0.0062
  3.100    1.8934    0.0065    1.8933    0.0065    1.8937    0.0065    1.8937    0.0065    1.8935    0.0065    1.8934    0.0065
  3.200    1.8978    0.0067    1.8977    0.0067    1.8981    0.0067    1.8981    0.0067    1.8979    0.0067    1.8978    0.0067
  3.300    1.9024    0.0070    1.9023    0.0070    1.9027    0.0070    1.9027    0.0070    1.9024    0.0070    1.9023    0.0070
  3.400    1.9072    0.0073    1.9071    0.0073    1.9075    0.0073    1.9075    0.0073    1.9072    0.0073    1.9071    0.0073
  3.500    1.9122    0.0076    1.9121    0.0076    1.9125    0.0076    1.9125    0.0076    1.9122    0.0076    1.9121    0.0076
  3.600    1.9174    0.0080    1.9173    0.0080    1.9177    0.0080    1.9177    0.0080    1.9174    0.0080    1.9173    0.0080
  3.700    1.9228    0.0083    1.9227    0.0083    1.9231    0.0083    1.9231    0.0083    1.9228    0.0083    1.9227    0.0083
  3.800    1.9284    0.0086    1.9283    0.0086    1.9287    0.0086    1.9287    0.0086    1.9284    0.0086    1.9283    0.0086
  3.900    1.9343    0.0090    1.9342    0.0090    1.9346    0.0090    1.9345    0.0090    1.9343    0.0090    1.9342    0.0090
  4.000    1.9403    0.0093    1.9403    0.0093    1.9407    0.0093    1.9406    0.0093    1.9404    0.0093    1.9403    0.0093
  4.100    1.9467    0.0097    1.9466    0.0097    1.9470    0.0097    1.9470    0.0097    1.9467    0.0097    1.9466    0.0097
  4.200    1.9533    0.0101    1.9532    0.0101    1.9536    0.0101    1.9536    0.0101    1.9533    0.0101    1.9532    0.0101
  4.300    1.9601    0.0105    1.9600    0.0105    1.9605    0.0105    1.9604    0.0105    1.9602    0.0105    1.9601    0.0105
  4.400    1.9673    0.0109    1.9672    0.0109    1.9676    0.0109    1.9676    0.0109    1.9673    0.0109    1.9672    0.0109
  4.500    1.9747    0.0114    1.9746    0.0114    1.9750    0.0114    1.9750    0.0114    1.9747    0.0114    1.9746    0.0114
  4.600    1.9824    0.0118    1.9823    0.0118    1.9827    0.0118    1.9827    0.0118    1.9824    0.0118    1.9824    0.0118
  4.700    1.9904    0.0123    1.9903    0.0123    1.9908    0.0123    1.9908    0.0123    1.9905    0.0123    1.9904    0.0123
  4.800    1.9988    0.0128    1.9987    0.0128    1.9991    0.0128    1.9991    0.0128    1.9988    0.0128    1.9987    0.0128
  4.900    2.0075    0.0133    2.0074    0.0133    2.0078    0.0133    2.0078    0.0133    2.0075    0.0133    2.0074    0.0133
  5.000    2.0165    0.0139    2.0164    0.0139    2.0169    0.0139    2.0169    0.0139    2.0166    0.0139    2.0165    0.0139
  5.100    2.0260    0.0144    2.0258    0.0144    2.0263    0.0144    2.0263    0.0144    2.0260    0.0144    2.0259    0.0144
  5.200    2.0358    0.0150    2.0356    0.0150    2.0361    0.0150    2.0361    0.0150    2.0358    0.0150    2.0357    0.0150
  5.300    2.0460    0.0157    2.0459    0.0156    2.0463    0.0157    2.0463    0.0157    2.0460    0.0157    2.0459    0.0157
  5.400    2.0566    0.0163    2.0565    0.0163    2.0569    0.0163    2.0569    0.0163    2.0566    0.0163    2.0565    0.0163
  5.500    2.0677    0.0170    2.0676    0.0170    2.0680    0.0170    2.0680    0.0170    2.0677    0.0170    2.0676    0.0170
  5.600    2.0792    0.0177    2.0791    0.0177    2.0796    0.0177    2.0796    0.0177    2.0793    0.0177    2.0792    0.0177
  5.700    2.0913    0.0185    2.0912    0.0185    2.0916    0.0185    2.0916    0.0185    2.0913    0.0185    2.0912    0.0185
  5.800    2.1039    0.0193    2.1038    0.0193    2.1042    0.0193    2.1042    0.0193    2.1039    0.0193    2.1038    0.0193
  5.900    2.1170    0.0202    2.1169    0.0202    2.1174    0.0202    2.1173    0.0202    2.1170    0.0202    2.1169    0.0202
  6.000    2.1307    0.0211    2.1306    0.0211    2.1311    0.0211    2.1311    0.0211    2.1307    0.0211    2.1306    0.0211
  6.100    2.1451    0.0220    2.1449    0.0220    2.1454    0.0220    2.1454    0.0220    2.1451    0.0220    2.1450    0.0220
  6.200    2.1601    0.0231    2.1599    0.0231    2.1604    0.0231    2.1604    0.0231    2.1601    0.0231    2.1600    0.0231
  6.300    2.1758    0.0241    2.1756    0.0241    2.1761    0.0242    2.1761    0.0242    2.1758    0.0241    2.1757    0.0241
  6.400    2.1922    0.0253    2.1921    0.0253    2.1926    0.0253    2.1926    0.0253    2.1922    0.0253    2.1921    0.0253
  6.500    2.2094    0.0265    2.2093    0.0265    2.2098    0.0266    2.2098    0.0266    2.2095    0.0265    2.2094    0.0265
  6.600    2.2275    0.0279    2.2274    0.0279    2.2279    0.0279    2.2279    0.0279    2.2276    0.0279    2.2274    0.0279
  6.700    2.2465    0.0293    2.2464    0.0293    2.2469    0.0293    2.2469    0.0293    2.2465    0.0293    2.2464    0.0293
  6.800    2.2665    0.0308    2.2663    0.0308    2.2669    0.0308    2.2669    0.0308    2.2665    0.0308    2.2664    0.0308
  6.900    2.2875    0.0324    2.2873    0.0324    2.2879    0.0324    2.2879    0.0324    2.2875    0.0324    2.2874    0.0324
  7.000    2.3096    0.0342    2.3095    0.0342    2.3100    0.0342    2.3100    0.0342    2.3096    0.0342    2.3095    0.0342
  7.100    2.3330    0.0361    2.3328    0.0361    2.3334    0.0361    2.3334    0.0361    2.3330    0.0361    2.3329    0.0361
  7.200    2.3576    0.0381    2.3575    0.0381    2.3580    0.0381    2.3580    0.0381    2.3576    0.0381    2.3575    0.0381
  7.300    2.3837    0.0404    2.3835    0.0404    2.3841    0.0404    2.3841    0.0404    2.3837    0.0404    2.3836    0.0404
  7.400    2.4113    0.0428    2.4111    0.0428    2.4117    0.0428    2.4117    0.0428    2.4113    0.0428    2.4112    0.0428
  7.500    2.4406    0.0454    2.4404    0.0454    2.4410    0.0454    2.4410    0.0454    2.4406    0.0454    2.4404    0.0454
  7.600    2.4717    0.0483    2.4715    0.0483    2.4721    0.0483    2.4721    0.0483    2.4717    0.0483    2.4715    0.0483
  7.700    2.5048    0.0515    2.5046    0.0515    2.5052    0.0515    2.5052    0.0515    2.5048    0.0515    2.5046    0.0515
  7.800    2.5401    0.0550    2.5399    0.0550    2.5406    0.0550    2.5405    0.0550    2.5401    0.0550    2.5399    0.0550
  7.900    2.5778    0.0588    2.5776    0.0588    2.5783    0.0589    2.5783    0.0589    2.5778    0.0588    2.5777    0.0588
  8.000    2.6182    0.0631    2.6180    0.0631    2.6187    0.0631    2.6187    0.0631    2.6182    0.0631    2.6180    0.0631
  8.100    2.6616    0.0679    2.6613    0.0679    2.6621    0.0679    2.6621    0.0679    2.6616    0.0679    2.6614    0.0679
  8.200    2.7083    0.0732    2.7080    0.0732    2.7088    0.0733    2.7088    0.0733    2.7083    0.0732    2.7081    0.0732
  8.300    2.7587    0.0792    2.7584    0.0792    2.7593    0.0792    2.7592    0.0792    2.7587    0.0792    2.7585    0.0792
  8.400    2.8133    0.0860    2.8130    0.0860    2.8139    0.0860    2.8139    0.0860    2.8133    0.0860    2.8131    0.0860
  8.500    2.8726    0.0937    2.8723    0.0937    2.8732    0.0937    2.8732    0.0937    2.8726    0.0937    2.8724    0.0937
  8.600    2.9373    0.1025    2.9370    0.1024    2.9380    0.1025    2.9379    0.1025    2.9373    0.1025    2.9371    0.1025
  8.700    3.0082    0.1126    3.0079    0.1126    3.0089    0.1127    3.0089    0.1127    3.0082    0.1126    3.0080    0.1126
  8.800    3.0862    0.1243    3.0858    0.1243    3.0869    0.1244    3.0869    0.1244    3.0862    0.1243    3.0859    0.1243
  8.900    3.1724    0.1381    3.1720    0.1380    3.1732    0.1381    3.1732    0.1381    3.1724    0.1381    3.1721    0.1380
  9.000    3.2683    0.1543    3.2679    0.1542    3.2691    0.1543    3.2691    0.1543    3.2683    0.1543    3.2680    0.1542
  9.100    3.3756    0.1736    3.3752    0.1735    3.3765    0.1737    3.3765    0.1737    3.3756    0.1736    3.3753    0.1735
  9.200    3.4965    0.1968    3.4960    0.1968    3.4975    0.1970    3.4975    0.1970    3.4965    0.1968    3.4962    0.1968
  9.300    3.6339    0.2253    3.6334    0.2252    3.6350    0.2254    3.6350    0.2255    3.6339    0.2253    3.6335    0.2252
  9.400    3.7914    0.2606    3.7908    0.2605    3.7926    0.2608    3.7926    0.2608    3.7914    0.2606    3.7910    0.2605
  9.500    3.9738    0.3051    3.9732    0.3050    3.9752    0.3053    3.9752    0.3053    3.9739    0.3051    3.9734    0.3050
  9.600    4.1877    0.3623    4.1870    0.3622    4.1893    0.3627    4.1893    0.3627    4.1878    0.3624    4.1872    0.3622
  9.700    4.4420    0.4378    4.4412    0.4377    4.4438    0.4383    4.4438    0.4383    4.4421    0.4379    4.4414    0.4377
  9.800    4.7492    0.5402    4.7483    0.5400    4.7513    0.5408    4.7513    0.5408    4.7493    0.5403    4.7485    0.5400
  9.900    5.1274    0.6837    5.1264    0.6834    5.1299    0.6845    5.1300    0.6846    5.1276    0.6838    5.1266    0.6834
 10.000    5.6034    0.8936    5.6021    0.8931    5.6064    0.8948    5.6065    0.8949    5.6036    0.8938    5.6024    0.8932
 10.100    6.2172    1.2170    6.2156    1.2164    6.2210    1.2190    6.2212    1.2192    6.2175    1.2174    6.2160    1.2164
 10.200    7.0284    1.7499    7.0265    1.7489    7.0334    1.7532    7.0337    1.7535    7.0290    1.7505    7.0269    1.7489
 10.300    8.1143    2.7056    8.1119    2.7039    8.1208    2.7118    8.1212    2.7124    8.1151    2.7069    8.1123    2.7039
 10.400    9.4908    4.6048    9.4879    4.6014    9.4983    4.6175    9.4987    4.6189    9.4917    4.6076    9.4884    4.6014
 10.500   10.4926    8.6832   10.4908    8.6761   10.4935    8.7101   10.4928    8.7133   10.4914    8.6893   10.4917    8.6761
 10.600    6.9507   15.5277    6.9569   15.5188    6.9136   15.5563    6.9076   15.5591    6.9393   15.5331    6.9589   15.5195
 10.700   -3.2717   15.3091   -3.2634   15.3111   -3.3079   15.2822   -3.3128   15.2768   -3.2811   15.2987   -3.2626   15.3139
 10.800   -6.5132    8.4878   -6.5113    8.4908   -6.5134    8.4634   -6.5126    8.4589   -6.5117    8.4793   -6.5123    8.4927
 10.900   -5.4512    4.5260   -5.4507    4.5273   -5.4452    4.5147   -5.4436    4.5126   -5.4481    4.5220   -5.4518    4.5283
 11.000   -4.0682    2.6841   -4.0678    2.6846   -4.0630    2.6787   -4.0616    2.6777   -4.0655    2.6821   -4.0687    2.6851
 11.100   -2.9746    1.7578   -2.9742    1.7580   -2.9707    1.7550   -2.9696    1.7544   -2.9726    1.7567   -2.9750    1.7584
 11.200   -2.1476    1.2439   -2.1472    1.2440   -2.1446    1.2423   -2.1437    1.2420   -2.1459    1.2433   -2.1478    1.2442
 11.300   -1.5094    0.9356   -1.5090    0.9356   -1.5071    0.9346   -1.5064    0.9344   -1.5081    0.9352   -1.5095    0.9358
 11.400   -1.0007    0.7399   -1.0002    0.7399   -0.9987    0.7392   -0.9981    0.7391   -0.9995    0.7396   -1.0007    0.7400
 11.500   -0.5807    0.6111   -0.5803    0.6110   -0.5791    0.6106   -0.5786    0.6105   -0.5797    0.6109   -0.5807    0.6111
 11.600   -0.2220    0.5251   -0.2216    0.5251   -0.2206    0.5249   -0.2201    0.5248   -0.2211    0.5250   -0.2220    0.5252
 11.700    0.0950    0.4688    0.0953    0.4688    0.0962    0.4686    0.0967    0.4686    0.0958    0.4687    0.0950    0.4688
 11.800    0.3849    0.4347    0.3852    0.4347    0.3861    0.4346    0.3864    0.4346    0.3856    0.4346    0.3849    0.4347
 11.900    0.6595    0.4191    0.6598    0.4191    0.6607    0.4191    0.6610    0.4191    0.6603    0.4191    0.6596    0.4191
 12.000    0.9295    0.4210    0.9298    0.4209    0.9306    0.4210    0.9310    0.4210    0.9302    0.4210    0.9295    0.4210
 12.100    1.2053    0.4417    1.2056    0.4417    1.2065    0.4418    1.2069    0.4418    1.2061    0.4417    1.2054    0.4417
 12.200    1.4990    0.4859    1.4992    0.4858    1.5003    0.4861    1.5006    0.4861    1.4997    0.4859    1.4990    0.4859
 12.300    1.8253    0.5629    1.8255    0.5628    1.8268    0.5633    1.8271    0.5633    1.8261    0.5630    1.8253    0.5628
 12.400    2.2047    0.6912    2.2048    0.6909    2.2064    0.6918    2.2068    0.6918    2.2055    0.6913    2.2046    0.6910
 12.500    2.6661    0.9076    2.6660    0.9072    2.6682    0.9086    2.6686    0.9087    2.6670    0.9079    2.6660    0.9073
 12.600    3.2497    1.2920    3.2494    1.2914    3.2523    1.2939    3.2527    1.2940    3.2507    1.2925    3.2494    1.2916
 12.700    3.9927    2.0327    3.9922    2.0315    3.9959    2.0365    3.9963    2.0368    3.9939    2.0338    3.9923    2.0318
 12.800    4.7893    3.5981    4.7891    3.5954    4.7918    3.6064    4.7923    3.6069    4.7902    3.6004    4.7891    3.5960
 12.900    4.5022    6.8099    4.5052    6.8053    4.4952    6.8247    4.4953    6.8257    4.5004    6.8141    4.5045    6.8064
 13.000   -0.0479    9.3574   -0.0399    9.3586   -0.0701    9.3553   -0.0709    9.3557   -0.0540    9.3566   -0.0417    9.3586
 13.100   -3.9499    6.2311   -3.9481    6.2363   -3.9544    6.2170   -3.9547    6.2167   -3.9508    6.2268   -3.9487    6.2354
 13.200   -3.9191    3.2698   -3.9199    3.2725   -3.9164    3.2624   -3.9164    3.2623   -3.9179    3.2676   -3.9199    3.2720
 13.300   -3.1218    1.8594   -3.1226    1.8606   -3.1188    1.8559   -3.1188    1.8559   -3.1206    1.8583   -3.1227    1.8604
 13.400   -2.4267    1.1778   -2.4272    1.1785   -2.4243    1.1760   -2.4243    1.1760   -2.4256    1.1773   -2.4273    1.1783
 13.500   -1.8959    0.8129   -1.8962    0.8132   -1.8940    0.8119   -1.8940    0.8119   -1.8950    0.8126   -1.8963    0.8132
 13.600   -1.4894    0.5987   -1.4896    0.5989   -1.4880    0.5981   -1.4880    0.5981   -1.4887    0.5985   -1.4898    0.5989
 13.700   -1.1698    0.4637   -1.1699    0.4638   -1.1686    0.4633   -1.1686    0.4633   -1.1691    0.4636   -1.1701    0.4638
 13.800   -0.9108    0.3740   -0.9108    0.3741   -0.9098    0.3737   -0.9098    0.3737   -0.9102    0.3739   -0.9110    0.3741
 13.900   -0.6948    0.3121   -0.6948    0.3122   -0.6940    0.3119   -0.6939    0.3119   -0.6942    0.3121   -0.6950    0.3122
 14.000   -0.5099    0.2685   -0.5098    0.2686   -0.5091    0.2684   -0.5091    0.2684   -0.5093    0.2685   -0.5099    0.2686
 14.100   -0.3473    0.2376   -0.3472    0.2377   -0.3466    0.2375   -0.3466    0.2375   -0.3467    0.2376   -0.3474    0.2377
 14.200   -0.2008    0.2163   -0.2007    0.2163   -0.2002    0.2162   -0.2001    0.2162   -0.2003    0.2163   -0.2008    0.2163
 14.300   -0.0653    0.2028   -0.0651    0.2028   -0.0647    0.2028   -0.0646    0.2028   -0.0647    0.2028   -0.0653    0.2028
 14.400    0.0637    0.1965    0.0639    0.1966    0.0643    0.1965    0.0643    0.1965    0.0643    0.1966    0.0637    0.1966
 14.500    0.1904    0.1979    0.1907    0.1979    0.1910    0.1979    0.1911    0.1979    0.1911    0.1979    0.1905    0.1979
 14.600    0.3196    0.2087    0.3199    0.2087    0.3202    0.2088    0.3202    0.2087    0.3203    0.2088    0.3197    0.2088
 14.700    0.4569    0.2331    0.4572    0.2331    0.4576    0.2332    0.4576    0.2332    0.4576    0.2332    0.4571    0.2332
 14.800    0.6100    0.2797    0.6104    0.2798    0.6108    0.2800    0.6107    0.2799    0.6108    0.2800    0.6103    0.2799
