# GW Macroscopic dielectric function without local field effects 
# Scissor operator energy =  5.2000 [eV]
# Tolerance =  0.0200 0.0000
# npweps  = 27
# npwwfn  = 307
# nbands  = 7
# loband  = 2
# nkibz   = 3
# nkbz    = 8
# Lorentzian broadening =  0.1500 [eV]
# List of q-points for the optical limit:
# q =  0.707858, 0.000000, 0.000000, [Reduced coords] 
# q =  0.000000, 0.707858, 0.000000, [Reduced coords] 
# q =  0.000000, 0.000000, 0.707858, [Reduced coords] 
# q =  0.000000, 0.613023, 0.613023, [Reduced coords] 
# q =  0.613023, 0.000000, 0.613023, [Reduced coords] 
# q =  0.613023, 0.613023, 0.000000, [Reduced coords] 
# omega [eV]    RE(eps(q=1)) IM(eps(q=1) RE(eps(q=2) ) ... DOS   IDOS
  0.000    1.6222    0.0000    1.6222   -0.0000    1.6224    0.0000    1.6224   -0.0000    1.6223   -0.0000    1.6222    0.0000    0.0000    0.0000
  0.100    1.6222    0.0001    1.6222    0.0001    1.6224    0.0001    1.6224    0.0001    1.6223    0.0001    1.6222    0.0001    0.0000    0.0000
  0.200    1.6223    0.0001    1.6223    0.0001    1.6225    0.0001    1.6225    0.0001    1.6224    0.0001    1.6223    0.0001    0.0000    0.0000
  0.300    1.6224    0.0002    1.6224    0.0002    1.6226    0.0002    1.6226    0.0002    1.6225    0.0002    1.6224    0.0002    0.0000    0.0000
  0.400    1.6226    0.0003    1.6226    0.0003    1.6228    0.0003    1.6228    0.0003    1.6226    0.0003    1.6226    0.0003    0.0000    0.0000
  0.500    1.6228    0.0004    1.6228    0.0004    1.6230    0.0004    1.6230    0.0004    1.6229    0.0004    1.6228    0.0004    0.0000    0.0000
  0.600    1.6231    0.0004    1.6231    0.0004    1.6233    0.0004    1.6233    0.0004    1.6231    0.0004    1.6231    0.0004    0.0000    0.0000
  0.700    1.6234    0.0005    1.6234    0.0005    1.6236    0.0005    1.6236    0.0005    1.6234    0.0005    1.6234    0.0005    0.0000    0.0000
  0.800    1.6237    0.0006    1.6237    0.0006    1.6239    0.0006    1.6239    0.0006    1.6238    0.0006    1.6237    0.0006    0.0000    0.0000
  0.900    1.6242    0.0006    1.6241    0.0006    1.6244    0.0006    1.6244    0.0006    1.6242    0.0006    1.6241    0.0006    0.0000    0.0000
  1.000    1.6246    0.0007    1.6246    0.0007    1.6248    0.0007    1.6248    0.0007    1.6247    0.0007    1.6246    0.0007    0.0000    0.0000
  1.100    1.6251    0.0008    1.6251    0.0008    1.6253    0.0008    1.6253    0.0008    1.6252    0.0008    1.6251    0.0008    0.0000    0.0000
  1.200    1.6257    0.0009    1.6256    0.0009    1.6259    0.0009    1.6259    0.0009    1.6257    0.0009    1.6256    0.0009    0.0000    0.0000
  1.300    1.6263    0.0009    1.6262    0.0009    1.6265    0.0009    1.6265    0.0009    1.6263    0.0009    1.6263    0.0009    0.0000    0.0000
  1.400    1.6269    0.0010    1.6269    0.0010    1.6271    0.0010    1.6271    0.0010    1.6270    0.0010    1.6269    0.0010    0.0000    0.0000
  1.500    1.6276    0.0011    1.6276    0.0011    1.6278    0.0011    1.6278    0.0011    1.6277    0.0011    1.6276    0.0011    0.0000    0.0000
  1.600    1.6284    0.0012    1.6284    0.0012    1.6286    0.0012    1.6286    0.0012    1.6284    0.0012    1.6284    0.0012    0.0000    0.0000
  1.700    1.6292    0.0012    1.6292    0.0012    1.6294    0.0012    1.6294    0.0012    1.6292    0.0012    1.6292    0.0012    0.0000    0.0000
  1.800    1.6300    0.0013    1.6300    0.0013    1.6302    0.0013    1.6302    0.0013    1.6301    0.0013    1.6300    0.0013    0.0000    0.0000
  1.900    1.6310    0.0014    1.6309    0.0014    1.6312    0.0014    1.6312    0.0014    1.6310    0.0014    1.6309    0.0014    0.0000    0.0000
  2.000    1.6319    0.0015    1.6319    0.0015    1.6321    0.0015    1.6321    0.0015    1.6320    0.0015    1.6319    0.0015    0.0000    0.0000
  2.100    1.6329    0.0016    1.6329    0.0016    1.6331    0.0016    1.6331    0.0016    1.6330    0.0016    1.6329    0.0016    0.0000    0.0000
  2.200    1.6340    0.0016    1.6340    0.0016    1.6342    0.0016    1.6342    0.0016    1.6340    0.0016    1.6340    0.0016    0.0000    0.0000
  2.300    1.6351    0.0017    1.6351    0.0017    1.6353    0.0017    1.6353    0.0017    1.6352    0.0017    1.6351    0.0017    0.0000    0.0000
  2.400    1.6363    0.0018    1.6363    0.0018    1.6365    0.0018    1.6365    0.0018    1.6363    0.0018    1.6363    0.0018    0.0000    0.0000
  2.500    1.6375    0.0019    1.6375    0.0019    1.6377    0.0019    1.6377    0.0019    1.6376    0.0019    1.6375    0.0019    0.0000    0.0000
  2.600    1.6388    0.0020    1.6388    0.0020    1.6390    0.0020    1.6390    0.0020    1.6388    0.0020    1.6388    0.0020    0.0000    0.0000
  2.700    1.6401    0.0021    1.6401    0.0021    1.6403    0.0021    1.6403    0.0021    1.6402    0.0021    1.6401    0.0021    0.0000    0.0000
  2.800    1.6415    0.0021    1.6415    0.0021    1.6417    0.0021    1.6417    0.0021    1.6416    0.0021    1.6415    0.0021    0.0000    0.0000
  2.900    1.6430    0.0022    1.6430    0.0022    1.6432    0.0022    1.6432    0.0022    1.6430    0.0022    1.6430    0.0022    0.0000    0.0000
  3.000    1.6445    0.0023    1.6445    0.0023    1.6447    0.0023    1.6447    0.0023    1.6445    0.0023    1.6445    0.0023    0.0000    0.0000
  3.100    1.6461    0.0024    1.6460    0.0024    1.6463    0.0024    1.6463    0.0024    1.6461    0.0024    1.6460    0.0024    0.0000    0.0000
  3.200    1.6477    0.0025    1.6477    0.0025    1.6479    0.0025    1.6479    0.0025    1.6477    0.0025    1.6477    0.0025    0.0000    0.0000
  3.300    1.6494    0.0026    1.6494    0.0026    1.6496    0.0026    1.6496    0.0026    1.6494    0.0026    1.6494    0.0026    0.0000    0.0000
  3.400    1.6511    0.0027    1.6511    0.0027    1.6514    0.0027    1.6514    0.0027    1.6512    0.0027    1.6511    0.0027    0.0000    0.0000
  3.500    1.6530    0.0028    1.6529    0.0028    1.6532    0.0028    1.6532    0.0028    1.6530    0.0028    1.6529    0.0028    0.0000    0.0000
  3.600    1.6548    0.0029    1.6548    0.0029    1.6551    0.0029    1.6551    0.0029    1.6549    0.0029    1.6548    0.0029    0.0000    0.0000
  3.700    1.6568    0.0030    1.6568    0.0030    1.6570    0.0030    1.6570    0.0030    1.6568    0.0030    1.6568    0.0030    0.0000    0.0000
  3.800    1.6588    0.0031    1.6588    0.0031    1.6590    0.0031    1.6590    0.0031    1.6589    0.0031    1.6588    0.0031    0.0000    0.0000
  3.900    1.6609    0.0032    1.6609    0.0032    1.6611    0.0032    1.6611    0.0032    1.6609    0.0032    1.6609    0.0032    0.0000    0.0000
  4.000    1.6630    0.0033    1.6630    0.0033    1.6633    0.0033    1.6632    0.0033    1.6631    0.0033    1.6630    0.0033    0.0000    0.0000
  4.100    1.6653    0.0034    1.6652    0.0034    1.6655    0.0034    1.6655    0.0034    1.6653    0.0034    1.6652    0.0034    0.0000    0.0000
  4.200    1.6676    0.0035    1.6675    0.0035    1.6678    0.0035    1.6678    0.0035    1.6676    0.0035    1.6675    0.0035    0.0000    0.0000
  4.300    1.6699    0.0036    1.6699    0.0036    1.6701    0.0036    1.6701    0.0036    1.6700    0.0036    1.6699    0.0036    0.0000    0.0000
  4.400    1.6724    0.0037    1.6723    0.0037    1.6726    0.0037    1.6726    0.0037    1.6724    0.0037    1.6723    0.0037    0.0000    0.0000
  4.500    1.6749    0.0038    1.6749    0.0038    1.6751    0.0038    1.6751    0.0038    1.6749    0.0038    1.6749    0.0038    0.0000    0.0000
  4.600    1.6775    0.0039    1.6774    0.0039    1.6777    0.0039    1.6777    0.0039    1.6775    0.0039    1.6774    0.0039    0.0000    0.0000
  4.700    1.6801    0.0041    1.6801    0.0041    1.6803    0.0041    1.6803    0.0041    1.6802    0.0041    1.6801    0.0041    0.0000    0.0000
  4.800    1.6829    0.0042    1.6829    0.0042    1.6831    0.0042    1.6831    0.0042    1.6829    0.0042    1.6829    0.0042    0.0000    0.0000
  4.900    1.6857    0.0043    1.6857    0.0043    1.6859    0.0043    1.6859    0.0043    1.6858    0.0043    1.6857    0.0043    0.0000    0.0000
  5.000    1.6886    0.0044    1.6886    0.0044    1.6889    0.0044    1.6889    0.0044    1.6887    0.0044    1.6886    0.0044    0.0000    0.0000
  5.100    1.6917    0.0046    1.6916    0.0046    1.6919    0.0046    1.6919    0.0046    1.6917    0.0046    1.6916    0.0046    0.0000    0.0000
  5.200    1.6947    0.0047    1.6947    0.0047    1.6950    0.0047    1.6950    0.0047    1.6948    0.0047    1.6947    0.0047    0.0000    0.0000
  5.300    1.6979    0.0049    1.6979    0.0049    1.6981    0.0049    1.6981    0.0049    1.6980    0.0049    1.6979    0.0049    0.0000    0.0000
  5.400    1.7012    0.0050    1.7012    0.0050    1.7014    0.0050    1.7014    0.0050    1.7013    0.0050    1.7012    0.0050    0.0000    0.0000
  5.500    1.7046    0.0051    1.7046    0.0051    1.7048    0.0051    1.7048    0.0051    1.7046    0.0051    1.7046    0.0051    0.0000    0.0000
  5.600    1.7081    0.0053    1.7080    0.0053    1.7083    0.0053    1.7083    0.0053    1.7081    0.0053    1.7080    0.0053    0.0000    0.0000
  5.700    1.7116    0.0054    1.7116    0.0054    1.7118    0.0054    1.7118    0.0054    1.7117    0.0054    1.7116    0.0054    0.0000    0.0000
  5.800    1.7153    0.0056    1.7153    0.0056    1.7155    0.0056    1.7155    0.0056    1.7154    0.0056    1.7153    0.0056    0.0000    0.0000
  5.900    1.7191    0.0058    1.7191    0.0058    1.7193    0.0058    1.7193    0.0058    1.7191    0.0058    1.7191    0.0058    0.0000    0.0000
  6.000    1.7230    0.0059    1.7230    0.0059    1.7232    0.0059    1.7232    0.0059    1.7230    0.0059    1.7230    0.0059    0.0000    0.0000
  6.100    1.7270    0.0061    1.7270    0.0061    1.7272    0.0061    1.7272    0.0061    1.7270    0.0061    1.7270    0.0061    0.0000    0.0000
  6.200    1.7311    0.0063    1.7311    0.0063    1.7313    0.0063    1.7313    0.0063    1.7312    0.0063    1.7311    0.0063    0.0000    0.0000
  6.300    1.7353    0.0065    1.7353    0.0065    1.7356    0.0065    1.7356    0.0065    1.7354    0.0065    1.7353    0.0065    0.0000    0.0000
  6.400    1.7397    0.0066    1.7397    0.0066    1.7399    0.0066    1.7399    0.0066    1.7398    0.0066    1.7397    0.0066    0.0000    0.0000
  6.500    1.7442    0.0068    1.7442    0.0068    1.7444    0.0068    1.7444    0.0068    1.7442    0.0068    1.7442    0.0068    0.0000    0.0000
  6.600    1.7488    0.0070    1.7488    0.0070    1.7490    0.0070    1.7490    0.0070    1.7489    0.0070    1.7488    0.0070    0.0000    0.0000
  6.700    1.7536    0.0072    1.7535    0.0072    1.7538    0.0072    1.7538    0.0072    1.7536    0.0072    1.7535    0.0072    0.0000    0.0000
  6.800    1.7585    0.0074    1.7584    0.0074    1.7587    0.0074    1.7587    0.0074    1.7585    0.0074    1.7584    0.0074    0.0000    0.0000
  6.900    1.7635    0.0077    1.7635    0.0077    1.7637    0.0077    1.7637    0.0077    1.7635    0.0077    1.7635    0.0077    0.0000    0.0000
  7.000    1.7687    0.0079    1.7686    0.0079    1.7689    0.0079    1.7689    0.0079    1.7687    0.0079    1.7687    0.0079    0.0000    0.0000
  7.100    1.7740    0.0081    1.7740    0.0081    1.7742    0.0081    1.7742    0.0081    1.7741    0.0081    1.7740    0.0081    0.0000    0.0000
  7.200    1.7795    0.0084    1.7795    0.0084    1.7797    0.0084    1.7797    0.0084    1.7795    0.0084    1.7795    0.0084    0.0000    0.0000
  7.300    1.7852    0.0086    1.7851    0.0086    1.7854    0.0086    1.7854    0.0086    1.7852    0.0086    1.7851    0.0086    0.0000    0.0000
  7.400    1.7910    0.0089    1.7910    0.0089    1.7912    0.0089    1.7912    0.0089    1.7910    0.0089    1.7910    0.0089    0.0000    0.0000
  7.500    1.7970    0.0091    1.7970    0.0091    1.7972    0.0091    1.7972    0.0091    1.7970    0.0091    1.7970    0.0091    0.0000    0.0000
  7.600    1.8032    0.0094    1.8032    0.0094    1.8034    0.0094    1.8034    0.0094    1.8032    0.0094    1.8032    0.0094    0.0000    0.0000
  7.700    1.8095    0.0097    1.8095    0.0097    1.8098    0.0097    1.8098    0.0097    1.8096    0.0097    1.8095    0.0097    0.0000    0.0000
  7.800    1.8161    0.0100    1.8161    0.0100    1.8163    0.0100    1.8163    0.0100    1.8162    0.0100    1.8161    0.0100    0.0000    0.0000
  7.900    1.8229    0.0103    1.8229    0.0103    1.8231    0.0103    1.8231    0.0103    1.8229    0.0103    1.8229    0.0103    0.0000    0.0000
  8.000    1.8299    0.0107    1.8299    0.0107    1.8301    0.0107    1.8301    0.0107    1.8299    0.0107    1.8299    0.0107    0.0000    0.0000
  8.100    1.8371    0.0110    1.8371    0.0110    1.8373    0.0110    1.8373    0.0110    1.8371    0.0110    1.8371    0.0110    0.0000    0.0000
  8.200    1.8445    0.0114    1.8445    0.0114    1.8447    0.0114    1.8447    0.0114    1.8446    0.0114    1.8445    0.0114    0.0000    0.0000
  8.300    1.8522    0.0117    1.8522    0.0117    1.8524    0.0117    1.8524    0.0117    1.8523    0.0117    1.8522    0.0117    0.0000    0.0000
  8.400    1.8601    0.0121    1.8601    0.0121    1.8604    0.0121    1.8604    0.0121    1.8602    0.0121    1.8601    0.0121    0.0000    0.0000
  8.500    1.8683    0.0125    1.8683    0.0125    1.8686    0.0125    1.8686    0.0125    1.8684    0.0125    1.8683    0.0125    0.0000    0.0000
  8.600    1.8768    0.0129    1.8768    0.0129    1.8770    0.0129    1.8770    0.0129    1.8769    0.0129    1.8768    0.0129    0.0000    0.0000
  8.700    1.8856    0.0134    1.8855    0.0134    1.8858    0.0134    1.8858    0.0134    1.8856    0.0134    1.8855    0.0134    0.0000    0.0000
  8.800    1.8946    0.0138    1.8946    0.0138    1.8948    0.0138    1.8948    0.0138    1.8947    0.0138    1.8946    0.0138    0.0000    0.0000
  8.900    1.9040    0.0143    1.9040    0.0143    1.9042    0.0143    1.9042    0.0143    1.9040    0.0143    1.9040    0.0143    0.0000    0.0000
  9.000    1.9137    0.0148    1.9136    0.0148    1.9139    0.0148    1.9139    0.0148    1.9137    0.0148    1.9136    0.0148    0.0000    0.0000
  9.100    1.9237    0.0153    1.9237    0.0153    1.9239    0.0153    1.9239    0.0153    1.9238    0.0153    1.9237    0.0153    0.0000    0.0000
  9.200    1.9341    0.0159    1.9341    0.0159    1.9343    0.0159    1.9343    0.0159    1.9341    0.0159    1.9341    0.0159    0.0000    0.0000
  9.300    1.9449    0.0165    1.9449    0.0165    1.9451    0.0165    1.9451    0.0165    1.9449    0.0165    1.9449    0.0165    0.0000    0.0000
  9.400    1.9561    0.0171    1.9560    0.0171    1.9563    0.0171    1.9563    0.0171    1.9561    0.0171    1.9560    0.0171    0.0000    0.0000
  9.500    1.9677    0.0178    1.9676    0.0178    1.9679    0.0178    1.9679    0.0178    1.9677    0.0178    1.9676    0.0178    0.0000    0.0000
  9.600    1.9797    0.0184    1.9797    0.0184    1.9799    0.0184    1.9799    0.0184    1.9798    0.0184    1.9797    0.0184    0.0000    0.0000
  9.700    1.9922    0.0192    1.9922    0.0192    1.9924    0.0192    1.9924    0.0192    1.9923    0.0192    1.9922    0.0192    0.0000    0.0000
  9.800    2.0052    0.0199    2.0052    0.0199    2.0054    0.0199    2.0054    0.0199    2.0053    0.0199    2.0052    0.0199    0.0000    0.0000
  9.900    2.0188    0.0208    2.0187    0.0208    2.0190    0.0208    2.0190    0.0208    2.0188    0.0208    2.0187    0.0208    0.0000    0.0000
 10.000    2.0329    0.0216    2.0328    0.0216    2.0331    0.0216    2.0331    0.0216    2.0329    0.0216    2.0328    0.0216    0.0000    0.0000
 10.100    2.0476    0.0225    2.0475    0.0225    2.0478    0.0225    2.0478    0.0225    2.0476    0.0225    2.0475    0.0225    0.0000    0.0000
 10.200    2.0629    0.0235    2.0629    0.0235    2.0631    0.0235    2.0631    0.0235    2.0629    0.0235    2.0629    0.0235    0.0000    0.0000
 10.300    2.0789    0.0246    2.0788    0.0246    2.0791    0.0246    2.0791    0.0246    2.0789    0.0246    2.0789    0.0246    0.0000    0.0000
 10.400    2.0956    0.0257    2.0956    0.0257    2.0958    0.0257    2.0958    0.0257    2.0956    0.0257    2.0956    0.0257    0.0000    0.0000
 10.500    2.1131    0.0269    2.1130    0.0269    2.1133    0.0269    2.1133    0.0269    2.1131    0.0269    2.1130    0.0269    0.0000    0.0000
 10.600    2.1314    0.0282    2.1313    0.0282    2.1316    0.0282    2.1316    0.0282    2.1314    0.0282    2.1313    0.0282    0.0000    0.0000
 10.700    2.1505    0.0295    2.1505    0.0295    2.1508    0.0295    2.1508    0.0295    2.1506    0.0295    2.1505    0.0295    0.0000    0.0000
 10.800    2.1707    0.0310    2.1706    0.0310    2.1709    0.0310    2.1709    0.0310    2.1707    0.0310    2.1706    0.0310    0.0000    0.0000
 10.900    2.1918    0.0326    2.1918    0.0326    2.1920    0.0326    2.1920    0.0326    2.1919    0.0326    2.1918    0.0326    0.0000    0.0000
 11.000    2.2141    0.0344    2.2140    0.0344    2.2143    0.0344    2.2143    0.0344    2.2141    0.0344    2.2140    0.0344    0.0000    0.0000
 11.100    2.2375    0.0362    2.2375    0.0362    2.2377    0.0362    2.2377    0.0362    2.2376    0.0362    2.2375    0.0362    0.0000    0.0000
 11.200    2.2623    0.0383    2.2622    0.0383    2.2625    0.0383    2.2625    0.0383    2.2623    0.0383    2.2622    0.0383    0.0000    0.0000
 11.300    2.2884    0.0405    2.2884    0.0405    2.2886    0.0405    2.2886    0.0405    2.2885    0.0405    2.2884    0.0405    0.0000    0.0000
 11.400    2.3161    0.0430    2.3161    0.0430    2.3164    0.0430    2.3164    0.0430    2.3162    0.0430    2.3161    0.0430    0.0000    0.0000
 11.500    2.3455    0.0457    2.3455    0.0457    2.3458    0.0457    2.3458    0.0457    2.3456    0.0457    2.3455    0.0457    0.0000    0.0000
 11.600    2.3768    0.0486    2.3768    0.0486    2.3770    0.0486    2.3770    0.0486    2.3769    0.0486    2.3768    0.0486    0.0000    0.0000
 11.700    2.4102    0.0519    2.4101    0.0519    2.4104    0.0519    2.4104    0.0519    2.4102    0.0519    2.4101    0.0519    0.0000    0.0000
 11.800    2.4458    0.0556    2.4458    0.0556    2.4460    0.0556    2.4460    0.0556    2.4458    0.0556    2.4458    0.0556    0.0000    0.0000
 11.900    2.4840    0.0597    2.4839    0.0597    2.4842    0.0597    2.4842    0.0597    2.4840    0.0597    2.4839    0.0597    0.0000    0.0000
 12.000    2.5250    0.0644    2.5250    0.0644    2.5252    0.0644    2.5252    0.0644    2.5251    0.0644    2.5250    0.0644    0.0000    0.0000
 12.100    2.5693    0.0696    2.5693    0.0696    2.5695    0.0696    2.5695    0.0696    2.5693    0.0696    2.5693    0.0696    0.0000    0.0000
 12.200    2.6172    0.0756    2.6172    0.0756    2.6175    0.0756    2.6175    0.0756    2.6173    0.0756    2.6172    0.0756    0.0000    0.0000
 12.300    2.6694    0.0825    2.6694    0.0825    2.6696    0.0825    2.6696    0.0825    2.6694    0.0825    2.6694    0.0825    0.0000    0.0000
 12.400    2.7264    0.0905    2.7263    0.0905    2.7266    0.0905    2.7266    0.0905    2.7264    0.0905    2.7263    0.0905    0.0000    0.0000
 12.500    2.7890    0.0999    2.7889    0.0999    2.7892    0.0999    2.7892    0.0999    2.7890    0.0999    2.7889    0.0999    0.0000    0.0000
 12.600    2.8582    0.1111    2.8582    0.1111    2.8584    0.1111    2.8584    0.1111    2.8582    0.1111    2.8582    0.1111    0.0000    0.0000
 12.700    2.9352    0.1245    2.9352    0.1245    2.9355    0.1245    2.9355    0.1245    2.9353    0.1245    2.9352    0.1245    0.0000    0.0000
 12.800    3.0218    0.1408    3.0217    0.1408    3.0220    0.1408    3.0220    0.1408    3.0218    0.1408    3.0217    0.1408    0.0000    0.0000
 12.900    3.1198    0.1612    3.1198    0.1612    3.1200    0.1612    3.1200    0.1612    3.1199    0.1612    3.1198    0.1612    0.0000    0.0000
