# RPA macroscopic dielectric function without local fields
# Tolerance =  0.0200 0.0000
# npweps  = 27
# npwwfn  = 331
# nbands  = 7
# loband  = 2
# nkibz   = 3
# nkbz    = 8
# Lorentzian broadening =  0.1500 [eV]
# List of q-points for the optical limit:
# q =  0.707858, 0.000000, 0.000000, [Reduced coords] 
# q =  0.000000, 0.707858, 0.000000, [Reduced coords] 
# q =  0.000000, 0.000000, 0.707858, [Reduced coords] 
# q =  0.000000, 0.613023, 0.613023, [Reduced coords] 
# q =  0.613023, 0.000000, 0.613023, [Reduced coords] 
# q =  0.613023, 0.613023, 0.000000, [Reduced coords] 
# omega [eV]    RE(eps(q=1)) IM(eps(q=1) RE(eps(q=2) ) ... DOS   IDOS
  0.000    1.9170    0.0000    1.9170    0.0000    1.9173    0.0000    1.9173    0.0000    1.9171    0.0000    1.9170    0.0000    0.0000    0.0000
  0.100    1.9171    0.0002    1.9171    0.0002    1.9174    0.0002    1.9174    0.0002    1.9172    0.0002    1.9171    0.0002    0.0000    0.0000
  0.200    1.9174    0.0005    1.9173    0.0005    1.9176    0.0005    1.9176    0.0005    1.9174    0.0005    1.9173    0.0005    0.0000    0.0000
  0.300    1.9178    0.0007    1.9177    0.0007    1.9180    0.0007    1.9180    0.0007    1.9178    0.0007    1.9178    0.0007    0.0000    0.0000
  0.400    1.9183    0.0010    1.9183    0.0010    1.9186    0.0010    1.9186    0.0010    1.9184    0.0010    1.9183    0.0010    0.0000    0.0000
  0.500    1.9191    0.0012    1.9190    0.0012    1.9193    0.0012    1.9193    0.0012    1.9191    0.0012    1.9190    0.0012    0.0000    0.0000
  0.600    1.9200    0.0015    1.9199    0.0015    1.9202    0.0015    1.9202    0.0015    1.9200    0.0015    1.9199    0.0015    0.0000    0.0000
  0.700    1.9210    0.0017    1.9210    0.0017    1.9213    0.0017    1.9213    0.0017    1.9211    0.0017    1.9210    0.0017    0.0000    0.0000
  0.800    1.9222    0.0020    1.9222    0.0020    1.9225    0.0020    1.9225    0.0020    1.9223    0.0020    1.9222    0.0020    0.0000    0.0000
  0.900    1.9236    0.0022    1.9236    0.0022    1.9239    0.0022    1.9239    0.0022    1.9237    0.0022    1.9236    0.0022    0.0000    0.0000
  1.000    1.9252    0.0025    1.9252    0.0025    1.9254    0.0025    1.9254    0.0025    1.9253    0.0025    1.9252    0.0025    0.0000    0.0000
  1.100    1.9269    0.0027    1.9269    0.0027    1.9272    0.0027    1.9272    0.0027    1.9270    0.0027    1.9269    0.0027    0.0000    0.0000
  1.200    1.9288    0.0030    1.9288    0.0030    1.9291    0.0030    1.9291    0.0030    1.9289    0.0030    1.9288    0.0030    0.0000    0.0000
  1.300    1.9309    0.0033    1.9309    0.0033    1.9312    0.0033    1.9312    0.0033    1.9310    0.0033    1.9309    0.0033    0.0000    0.0000
  1.400    1.9332    0.0035    1.9332    0.0035    1.9334    0.0035    1.9334    0.0035    1.9332    0.0035    1.9332    0.0035    0.0000    0.0000
  1.500    1.9356    0.0038    1.9356    0.0038    1.9359    0.0038    1.9359    0.0038    1.9357    0.0038    1.9356    0.0038    0.0000    0.0000
  1.600    1.9382    0.0041    1.9382    0.0041    1.9385    0.0041    1.9385    0.0041    1.9383    0.0041    1.9382    0.0041    0.0000    0.0000
  1.700    1.9411    0.0044    1.9410    0.0044    1.9413    0.0044    1.9413    0.0044    1.9411    0.0044    1.9410    0.0044    0.0000    0.0000
  1.800    1.9441    0.0047    1.9440    0.0047    1.9443    0.0047    1.9443    0.0047    1.9441    0.0047    1.9440    0.0047    0.0000    0.0000
  1.900    1.9473    0.0050    1.9472    0.0050    1.9475    0.0050    1.9475    0.0050    1.9473    0.0050    1.9472    0.0050    0.0000    0.0000
  2.000    1.9507    0.0053    1.9506    0.0053    1.9509    0.0053    1.9509    0.0053    1.9507    0.0053    1.9506    0.0053    0.0000    0.0000
  2.100    1.9543    0.0056    1.9542    0.0056    1.9545    0.0056    1.9545    0.0056    1.9543    0.0056    1.9542    0.0056    0.0000    0.0000
  2.200    1.9581    0.0059    1.9580    0.0059    1.9583    0.0059    1.9583    0.0059    1.9581    0.0059    1.9580    0.0059    0.0000    0.0000
  2.300    1.9621    0.0062    1.9621    0.0062    1.9623    0.0062    1.9623    0.0062    1.9621    0.0062    1.9621    0.0062    0.0000    0.0000
  2.400    1.9663    0.0065    1.9663    0.0065    1.9666    0.0065    1.9666    0.0065    1.9664    0.0065    1.9663    0.0065    0.0000    0.0000
  2.500    1.9708    0.0069    1.9708    0.0069    1.9710    0.0069    1.9710    0.0069    1.9709    0.0069    1.9708    0.0069    0.0000    0.0000
  2.600    1.9755    0.0072    1.9755    0.0072    1.9757    0.0072    1.9757    0.0072    1.9756    0.0072    1.9755    0.0072    0.0000    0.0000
  2.700    1.9804    0.0076    1.9804    0.0076    1.9807    0.0076    1.9807    0.0076    1.9805    0.0076    1.9804    0.0076    0.0000    0.0000
  2.800    1.9856    0.0080    1.9856    0.0080    1.9859    0.0080    1.9859    0.0080    1.9857    0.0080    1.9856    0.0080    0.0000    0.0000
  2.900    1.9911    0.0084    1.9910    0.0084    1.9913    0.0084    1.9913    0.0084    1.9911    0.0084    1.9910    0.0084    0.0000    0.0000
  3.000    1.9968    0.0088    1.9967    0.0088    1.9970    0.0088    1.9970    0.0088    1.9968    0.0088    1.9967    0.0088    0.0000    0.0000
  3.100    2.0027    0.0092    2.0027    0.0092    2.0030    0.0092    2.0030    0.0092    2.0028    0.0092    2.0027    0.0092    0.0000    0.0000
  3.200    2.0090    0.0096    2.0090    0.0096    2.0092    0.0096    2.0092    0.0096    2.0090    0.0096    2.0090    0.0096    0.0000    0.0000
  3.300    2.0155    0.0101    2.0155    0.0101    2.0158    0.0101    2.0158    0.0101    2.0156    0.0101    2.0155    0.0101    0.0000    0.0000
  3.400    2.0224    0.0105    2.0224    0.0105    2.0226    0.0105    2.0226    0.0105    2.0224    0.0105    2.0224    0.0105    0.0000    0.0000
  3.500    2.0295    0.0110    2.0295    0.0110    2.0298    0.0110    2.0298    0.0110    2.0296    0.0110    2.0295    0.0110    0.0000    0.0000
  3.600    2.0370    0.0115    2.0370    0.0115    2.0373    0.0115    2.0373    0.0115    2.0371    0.0115    2.0370    0.0115    0.0000    0.0000
  3.700    2.0448    0.0120    2.0448    0.0120    2.0451    0.0120    2.0451    0.0120    2.0449    0.0120    2.0448    0.0120    0.0000    0.0000
  3.800    2.0530    0.0126    2.0530    0.0126    2.0533    0.0126    2.0533    0.0126    2.0531    0.0126    2.0530    0.0126    0.0000    0.0000
  3.900    2.0616    0.0131    2.0616    0.0131    2.0618    0.0131    2.0618    0.0131    2.0616    0.0131    2.0616    0.0131    0.0000    0.0000
  4.000    2.0705    0.0137    2.0705    0.0137    2.0707    0.0137    2.0707    0.0137    2.0706    0.0137    2.0705    0.0137    0.0000    0.0000
  4.100    2.0799    0.0143    2.0798    0.0143    2.0801    0.0143    2.0801    0.0143    2.0799    0.0143    2.0798    0.0143    0.0000    0.0000
  4.200    2.0896    0.0150    2.0896    0.0150    2.0899    0.0150    2.0899    0.0150    2.0897    0.0150    2.0896    0.0150    0.0000    0.0000
  4.300    2.0998    0.0157    2.0998    0.0157    2.1001    0.0157    2.1001    0.0157    2.0999    0.0157    2.0998    0.0157    0.0000    0.0000
  4.400    2.1105    0.0164    2.1105    0.0164    2.1107    0.0164    2.1107    0.0164    2.1106    0.0164    2.1105    0.0164    0.0000    0.0000
  4.500    2.1217    0.0172    2.1217    0.0172    2.1219    0.0172    2.1219    0.0172    2.1217    0.0172    2.1217    0.0172    0.0000    0.0000
  4.600    2.1334    0.0180    2.1334    0.0180    2.1336    0.0180    2.1336    0.0180    2.1334    0.0180    2.1334    0.0180    0.0000    0.0000
  4.700    2.1456    0.0188    2.1456    0.0188    2.1459    0.0188    2.1458    0.0188    2.1457    0.0188    2.1456    0.0188    0.0000    0.0000
  4.800    2.1584    0.0197    2.1584    0.0197    2.1587    0.0197    2.1587    0.0197    2.1585    0.0197    2.1584    0.0197    0.0000    0.0000
  4.900    2.1719    0.0207    2.1718    0.0207    2.1721    0.0207    2.1721    0.0207    2.1719    0.0207    2.1718    0.0207    0.0000    0.0000
  5.000    2.1860    0.0217    2.1859    0.0217    2.1862    0.0217    2.1862    0.0217    2.1860    0.0217    2.1859    0.0217    0.0000    0.0000
  5.100    2.2007    0.0228    2.2007    0.0228    2.2010    0.0228    2.2010    0.0228    2.2008    0.0228    2.2007    0.0228    0.0000    0.0000
  5.200    2.2163    0.0239    2.2162    0.0239    2.2165    0.0239    2.2165    0.0239    2.2163    0.0239    2.2162    0.0239    0.0000    0.0000
  5.300    2.2326    0.0251    2.2325    0.0251    2.2328    0.0251    2.2328    0.0251    2.2326    0.0251    2.2325    0.0251    0.0000    0.0000
  5.400    2.2497    0.0264    2.2497    0.0264    2.2499    0.0264    2.2499    0.0264    2.2498    0.0264    2.2497    0.0264    0.0000    0.0000
  5.500    2.2677    0.0279    2.2677    0.0279    2.2680    0.0279    2.2680    0.0279    2.2678    0.0279    2.2677    0.0279    0.0000    0.0000
  5.600    2.2868    0.0294    2.2867    0.0294    2.2870    0.0294    2.2870    0.0294    2.2868    0.0294    2.2867    0.0294    0.0000    0.0000
  5.700    2.3068    0.0310    2.3068    0.0310    2.3071    0.0310    2.3070    0.0310    2.3069    0.0310    2.3068    0.0310    0.0000    0.0000
  5.800    2.3280    0.0328    2.3280    0.0328    2.3282    0.0328    2.3282    0.0328    2.3280    0.0328    2.3280    0.0328    0.0000    0.0000
  5.900    2.3504    0.0347    2.3504    0.0347    2.3506    0.0347    2.3506    0.0347    2.3504    0.0347    2.3504    0.0347    0.0000    0.0000
  6.000    2.3741    0.0368    2.3741    0.0368    2.3743    0.0368    2.3743    0.0368    2.3741    0.0368    2.3741    0.0368    0.0000    0.0000
  6.100    2.3992    0.0390    2.3992    0.0390    2.3995    0.0390    2.3995    0.0390    2.3993    0.0390    2.3992    0.0390    0.0000    0.0000
  6.200    2.4259    0.0415    2.4259    0.0415    2.4262    0.0415    2.4262    0.0415    2.4260    0.0415    2.4259    0.0415    0.0000    0.0000
  6.300    2.4544    0.0442    2.4543    0.0442    2.4546    0.0442    2.4546    0.0442    2.4544    0.0442    2.4543    0.0442    0.0000    0.0000
  6.400    2.4847    0.0472    2.4847    0.0472    2.4849    0.0472    2.4849    0.0472    2.4847    0.0472    2.4847    0.0472    0.0000    0.0000
  6.500    2.5171    0.0506    2.5171    0.0506    2.5173    0.0506    2.5173    0.0506    2.5171    0.0506    2.5171    0.0506    0.0000    0.0000
  6.600    2.5518    0.0543    2.5518    0.0543    2.5520    0.0543    2.5520    0.0543    2.5518    0.0543    2.5518    0.0543    0.0000    0.0000
  6.700    2.5891    0.0584    2.5891    0.0584    2.5893    0.0584    2.5893    0.0584    2.5891    0.0584    2.5891    0.0584    0.0000    0.0000
  6.800    2.6293    0.0631    2.6292    0.0631    2.6295    0.0631    2.6295    0.0631    2.6293    0.0631    2.6292    0.0631    0.0000    0.0000
  6.900    2.6727    0.0684    2.6727    0.0684    2.6729    0.0684    2.6729    0.0684    2.6727    0.0684    2.6727    0.0684    0.0000    0.0000
  7.000    2.7198    0.0744    2.7198    0.0744    2.7200    0.0744    2.7200    0.0744    2.7199    0.0744    2.7198    0.0744    0.0000    0.0000
  7.100    2.7712    0.0813    2.7711    0.0813    2.7714    0.0813    2.7714    0.0813    2.7712    0.0813    2.7711    0.0813    0.0000    0.0000
  7.200    2.8274    0.0894    2.8274    0.0894    2.8276    0.0894    2.8276    0.0894    2.8274    0.0894    2.8274    0.0894    0.0000    0.0000
  7.300    2.8893    0.0989    2.8892    0.0989    2.8895    0.0989    2.8895    0.0989    2.8893    0.0989    2.8892    0.0989    0.0000    0.0000
  7.400    2.9578    0.1101    2.9577    0.1101    2.9580    0.1101    2.9580    0.1101    2.9578    0.1101    2.9577    0.1101    0.0000    0.0000
  7.500    3.0342    0.1236    3.0342    0.1236    3.0344    0.1236    3.0344    0.1236    3.0342    0.1236    3.0342    0.1236    0.0000    0.0000
  7.600    3.1201    0.1400    3.1201    0.1400    3.1204    0.1400    3.1203    0.1400    3.1202    0.1400    3.1201    0.1400    0.0000    0.0000
  7.700    3.2176    0.1605    3.2176    0.1605    3.2179    0.1605    3.2179    0.1605    3.2177    0.1605    3.2176    0.1605    0.0000    0.0000
  7.800    3.3296    0.1865    3.3296    0.1865    3.3299    0.1865    3.3298    0.1865    3.3297    0.1865    3.3296    0.1865    0.0000    0.0000
  7.900    3.4599    0.2204    3.4598    0.2204    3.4601    0.2204    3.4601    0.2204    3.4599    0.2204    3.4598    0.2204    0.0000    0.0000
  8.000    3.6138    0.2660    3.6138    0.2660    3.6140    0.2660    3.6140    0.2660    3.6139    0.2660    3.6138    0.2660    0.0000    0.0000
  8.100    3.7992    0.3294    3.7992    0.3294    3.7995    0.3294    3.7995    0.3294    3.7993    0.3294    3.7992    0.3294    0.0003    0.0000
  8.200    4.0276    0.4221    4.0276    0.4221    4.0278    0.4221    4.0278    0.4221    4.0277    0.4221    4.0276    0.4221    0.0056    0.0000
  8.300    4.3161    0.5656    4.3161    0.5656    4.3163    0.5656    4.3163    0.5656    4.3161    0.5656    4.3161    0.5656    0.0703    0.0003
  8.400    4.6896    0.8047    4.6896    0.8047    4.6898    0.8047    4.6898    0.8047    4.6897    0.8047    4.6896    0.8047    0.5620    0.0023
  8.500    5.1765    1.2423    5.1765    1.2423    5.1768    1.2423    5.1768    1.2423    5.1766    1.2423    5.1765    1.2423    2.8807    0.0129
  8.600    5.7518    2.1333    5.7518    2.1333    5.7521    2.1333    5.7521    2.1333    5.7519    2.1333    5.7518    2.1333    9.4670    0.0477
  8.700    5.9372    4.0197    5.9372    4.0197    5.9375    4.0197    5.9375    4.0197    5.9373    4.0197    5.9372    4.0197   19.9483    0.1210
  8.800    3.6805    6.3520    3.6804    6.3520    3.6807    6.3520    3.6807    6.3520    3.6805    6.3520    3.6804    6.3520   26.9512    0.2201
  8.900    0.3655    4.9907    0.3655    4.9907    0.3657    4.9907    0.3657    4.9907    0.3655    4.9907    0.3655    4.9907   23.3469    0.3059
  9.000    0.0240    2.7016    0.0240    2.7016    0.0243    2.7016    0.0243    2.7016    0.0241    2.7016    0.0240    2.7016   12.9677    0.3535
  9.100    0.6112    1.5613    0.6112    1.5613    0.6115    1.5613    0.6115    1.5613    0.6113    1.5613    0.6112    1.5613    4.6182    0.3705
  9.200    1.1997    1.0363    1.1997    1.0363    1.2000    1.0363    1.2000    1.0363    1.1998    1.0363    1.1997    1.0363    1.0545    0.3744
  9.300    1.6915    0.7788    1.6914    0.7788    1.6917    0.7788    1.6917    0.7788    1.6915    0.7788    1.6914    0.7788    0.1544    0.3749
  9.400    2.1119    0.6494    2.1119    0.6494    2.1121    0.6494    2.1121    0.6494    2.1120    0.6494    2.1119    0.6494    0.0145    0.3750
  9.500    2.4928    0.5910    2.4927    0.5910    2.4930    0.5910    2.4930    0.5910    2.4928    0.5910    2.4927    0.5910    0.0009    0.3750
  9.600    2.8595    0.5792    2.8595    0.5792    2.8598    0.5792    2.8598    0.5792    2.8596    0.5792    2.8595    0.5792    0.0000    0.3750
  9.700    3.2335    0.6050    3.2335    0.6050    3.2338    0.6050    3.2338    0.6050    3.2336    0.6050    3.2335    0.6050    0.0000    0.3750
  9.800    3.6351    0.6682    3.6351    0.6682    3.6353    0.6682    3.6353    0.6682    3.6352    0.6682    3.6351    0.6682    0.0000    0.3750
  9.900    4.0867    0.7767    4.0867    0.7767    4.0870    0.7767    4.0870    0.7767    4.0868    0.7767    4.0867    0.7767    0.0000    0.3750
 10.000    4.6169    0.9485    4.6168    0.9485    4.6171    0.9485    4.6171    0.9485    4.6169    0.9485    4.6168    0.9485    0.0012    0.3750
 10.100    5.2647    1.2195    5.2647    1.2195    5.2650    1.2195    5.2650    1.2195    5.2648    1.2195    5.2647    1.2195    0.0220    0.3751
 10.200    6.0870    1.6613    6.0870    1.6613    6.0873    1.6613    6.0873    1.6613    6.0871    1.6613    6.0870    1.6613    0.2575    0.3760
 10.300    7.1640    2.4270    7.1640    2.4270    7.1643    2.4270    7.1643    2.4270    7.1641    2.4270    7.1640    2.4270    1.9346    0.3831
 10.400    8.5782    3.8738    8.5781    3.8738    8.5784    3.8738    8.5784    3.8738    8.5782    3.8738    8.5781    3.8738    9.3180    0.4174
 10.500   10.1797    6.8911   10.1797    6.8911   10.1800    6.8911   10.1800    6.8911   10.1798    6.8911   10.1797    6.8911   28.7772    0.5231
 10.600   10.0258   13.2060   10.0258   13.2060   10.0261   13.2060   10.0261   13.2060   10.0259   13.2060   10.0258   13.2060   56.9839    0.7326
 10.700    1.4413   19.4799    1.4413   19.4799    1.4416   19.4799    1.4415   19.4799    1.4414   19.4799    1.4413   19.4799   72.3496    0.9984
 10.800   -7.8520   13.8139   -7.8521   13.8139   -7.8518   13.8139   -7.8518   13.8139   -7.8520   13.8139   -7.8520   13.8139   58.8980    1.2149
 10.900   -8.3674    7.2084   -8.3674    7.2084   -8.3671    7.2084   -8.3672    7.2084   -8.3673    7.2084   -8.3674    7.2084   30.7429    1.3279
 11.000   -6.7973    4.0037   -6.7974    4.0037   -6.7971    4.0037   -6.7971    4.0037   -6.7973    4.0037   -6.7974    4.0037   10.2889    1.3657
 11.100   -5.3759    2.4713   -5.3759    2.4713   -5.3756    2.4713   -5.3756    2.4713   -5.3758    2.4713   -5.3759    2.4713    2.2079    1.3738
 11.200   -4.3011    1.6604   -4.3011    1.6604   -4.3008    1.6604   -4.3008    1.6604   -4.3010    1.6604   -4.3011    1.6604    0.3038    1.3749
 11.300   -3.4951    1.1887   -3.4951    1.1887   -3.4948    1.1887   -3.4949    1.1887   -3.4950    1.1887   -3.4951    1.1887    0.0268    1.3750
 11.400   -2.8775    0.8928   -2.8775    0.8928   -2.8772    0.8928   -2.8772    0.8928   -2.8774    0.8928   -2.8775    0.8928    0.0015    1.3750
 11.500   -2.3918    0.6961   -2.3918    0.6961   -2.3916    0.6961   -2.3916    0.6961   -2.3917    0.6961   -2.3918    0.6961    0.0001    1.3750
 11.600   -2.0004    0.5593   -2.0005    0.5593   -2.0002    0.5593   -2.0002    0.5593   -2.0004    0.5593   -2.0005    0.5593    0.0000    1.3750
 11.700   -1.6781    0.4606   -1.6781    0.4606   -1.6778    0.4606   -1.6778    0.4606   -1.6780    0.4606   -1.6781    0.4606    0.0000    1.3750
 11.800   -1.4074    0.3875   -1.4074    0.3875   -1.4072    0.3875   -1.4072    0.3875   -1.4073    0.3875   -1.4074    0.3875    0.0000    1.3750
 11.900   -1.1761    0.3322   -1.1761    0.3322   -1.1758    0.3322   -1.1758    0.3322   -1.1760    0.3322   -1.1761    0.3322    0.0000    1.3750
 12.000   -0.9750    0.2900   -0.9751    0.2900   -0.9748    0.2900   -0.9748    0.2900   -0.9750    0.2900   -0.9751    0.2900    0.0000    1.3750
 12.100   -0.7975    0.2577   -0.7976    0.2577   -0.7973    0.2577   -0.7973    0.2577   -0.7975    0.2577   -0.7976    0.2577    0.0000    1.3750
 12.200   -0.6381    0.2338   -0.6381    0.2338   -0.6378    0.2338   -0.6378    0.2338   -0.6380    0.2338   -0.6381    0.2338    0.0005    1.3750
 12.300   -0.4921    0.2174   -0.4921    0.2174   -0.4918    0.2174   -0.4919    0.2174   -0.4920    0.2174   -0.4921    0.2174    0.0099    1.3750
 12.400   -0.3553    0.2092   -0.3554    0.2092   -0.3551    0.2092   -0.3551    0.2092   -0.3553    0.2092   -0.3554    0.2092    0.1177    1.3755
 12.500   -0.2235    0.2124   -0.2235    0.2124   -0.2232    0.2124   -0.2233    0.2124   -0.2234    0.2124   -0.2235    0.2124    0.8999    1.3788
 12.600   -0.0927    0.2351   -0.0927    0.2351   -0.0924    0.2351   -0.0924    0.2351   -0.0926    0.2351   -0.0927    0.2351    4.4123    1.3950
 12.700    0.0353    0.2990    0.0353    0.2990    0.0356    0.2990    0.0356    0.2990    0.0354    0.2990    0.0353    0.2990   13.8712    1.4460
 12.800    0.1152    0.4483    0.1151    0.4483    0.1154    0.4483    0.1154    0.4483    0.1152    0.4483    0.1151    0.4483   27.9608    1.5487
 12.900   -0.0231    0.6093   -0.0231    0.6093   -0.0228    0.6093   -0.0229    0.6093   -0.0230    0.6093   -0.0231    0.6093   36.1380    1.6815
