# Macroscopic dielectric function obtained with the BS equation.
#  RPA L0 with KS energies and KS wavefunctions     LOCAL FIELD EFFECTS INCLUDED
# RESONANT-ONLY calculation
# Coulomb term constructed with full W(G1,G2)
# Scissor operator energy =  0.8000 [eV]
# nstates included in the diagonalization = 96
# npweps  = 113
# npwwfn  = 259
# nbands  = 8
# loband  = 2
# nkibz   = 3
# nkbz    = 8
# Lorentzian broadening =  0.0000 [eV]
# List of q-points for the optical limit:
# q =  0.938821, 0.000000, 0.000000, [Reduced coords] 
# q =  0.000000, 0.938821, 0.000000, [Reduced coords] 
# q =  0.000000, 0.000000, 0.938821, [Reduced coords] 
# q =  0.000000, 0.813043, 0.813043, [Reduced coords] 
# q =  0.813043, 0.000000, 0.813043, [Reduced coords] 
# q =  0.813043, 0.813043, 0.000000, [Reduced coords] 
# omega [eV]    RE(eps(q=1)) IM(eps(q=1) RE(eps(q=2) ) ... DOS   IDOS
  0.000   55.7480    0.2853   55.7028    0.3546   55.7104    0.3536   55.7106    0.2673   55.8091    0.3415   55.8176    0.3500   -0.0000   -0.0000
  0.010   55.7486    0.2923   55.7033    0.3617   55.7109    0.3608   55.7111    0.2744   55.8096    0.3488   55.8181    0.3573   -0.0000   -0.0000
  0.020   55.7503    0.2992   55.7049    0.3689   55.7125    0.3679   55.7128    0.2814   55.8112    0.3562   55.8198    0.3647   -0.0000   -0.0000
  0.030   55.7531    0.3062   55.7077    0.3761   55.7153    0.3751   55.7157    0.2885   55.8140    0.3636   55.8225    0.3720   -0.0000   -0.0000
  0.040   55.7571    0.3133   55.7115    0.3833   55.7192    0.3823   55.7196    0.2956   55.8179    0.3710   55.8265    0.3794   -0.0000   -0.0000
  0.050   55.7621    0.3203   55.7165    0.3905   55.7243    0.3895   55.7247    0.3027   55.8230    0.3784   55.8315    0.3868   -0.0000   -0.0000
  0.060   55.7683    0.3273   55.7227    0.3978   55.7304    0.3968   55.7309    0.3098   55.8291    0.3858   55.8377    0.3943   -0.0000   -0.0000
  0.070   55.7757    0.3344   55.7299    0.4050   55.7377    0.4040   55.7382    0.3169   55.8364    0.3933   55.8450    0.4017   -0.0000   -0.0000
  0.080   55.7841    0.3415   55.7383    0.4124   55.7461    0.4113   55.7466    0.3241   55.8449    0.4008   55.8534    0.4092   -0.0000   -0.0000
  0.090   55.7937    0.3486   55.7478    0.4197   55.7556    0.4186   55.7562    0.3313   55.8544    0.4083   55.8630    0.4167   -0.0000   -0.0000
  0.100   55.8044    0.3558   55.7585    0.4271   55.7663    0.4260   55.7669    0.3385   55.8651    0.4159   55.8737    0.4243   -0.0000   -0.0000
  0.110   55.8163    0.3630   55.7703    0.4344   55.7781    0.4334   55.7788    0.3457   55.8770    0.4234   55.8856    0.4318   -0.0000   -0.0000
  0.120   55.8293    0.3702   55.7832    0.4419   55.7910    0.4408   55.7918    0.3530   55.8900    0.4310   55.8985    0.4394   -0.0000   -0.0000
  0.130   55.8434    0.3774   55.7972    0.4493   55.8051    0.4482   55.8059    0.3603   55.9041    0.4387   55.9127    0.4471   -0.0000   -0.0000
  0.140   55.8587    0.3846   55.8124    0.4568   55.8203    0.4557   55.8211    0.3676   55.9194    0.4463   55.9279    0.4547   -0.0000   -0.0000
  0.150   55.8751    0.3919   55.8287    0.4643   55.8366    0.4632   55.8375    0.3749   55.9358    0.4540   55.9443    0.4624   -0.0000   -0.0000
  0.160   55.8926    0.3992   55.8462    0.4719   55.8541    0.4707   55.8551    0.3823   55.9533    0.4618   55.9619    0.4701   -0.0000   -0.0000
  0.170   55.9113    0.4066   55.8648    0.4794   55.8727    0.4783   55.8738    0.3897   55.9720    0.4695   55.9806    0.4779   -0.0000   -0.0000
  0.180   55.9312    0.4139   55.8845    0.4871   55.8925    0.4859   55.8936    0.3971   55.9919    0.4773   56.0005    0.4857   -0.0000   -0.0000
  0.190   55.9522    0.4213   55.9054    0.4947   55.9134    0.4935   55.9146    0.4046   56.0129    0.4852   56.0215    0.4935   -0.0000   -0.0000
  0.200   55.9743    0.4288   55.9274    0.5024   55.9354    0.5012   55.9367    0.4121   56.0350    0.4930   56.0436    0.5014   -0.0000   -0.0000
  0.210   55.9976    0.4362   55.9506    0.5101   55.9586    0.5089   55.9600    0.4196   56.0583    0.5010   56.0670    0.5093   -0.0000   -0.0000
  0.220   56.0220    0.4438   55.9750    0.5179   55.9830    0.5167   55.9844    0.4272   56.0828    0.5089   56.0914    0.5172   -0.0000   -0.0000
  0.230   56.0477    0.4513   56.0005    0.5257   56.0085    0.5245   56.0100    0.4348   56.1085    0.5169   56.1171    0.5252   -0.0000   -0.0000
  0.240   56.0744    0.4589   56.0271    0.5336   56.0352    0.5323   56.0368    0.4424   56.1353    0.5249   56.1439    0.5332   -0.0000   -0.0000
  0.250   56.1024    0.4665   56.0550    0.5415   56.0631    0.5402   56.0647    0.4501   56.1633    0.5330   56.1719    0.5413   -0.0000   -0.0000
  0.260   56.1315    0.4742   56.0840    0.5494   56.0921    0.5481   56.0938    0.4578   56.1924    0.5411   56.2011    0.5494   -0.0000   -0.0000
  0.270   56.1618    0.4819   56.1141    0.5574   56.1223    0.5561   56.1241    0.4655   56.2228    0.5493   56.2314    0.5576   -0.0000   -0.0000
  0.280   56.1933    0.4896   56.1455    0.5654   56.1537    0.5641   56.1555    0.4733   56.2543    0.5575   56.2629    0.5658   -0.0000   -0.0000
  0.290   56.2259    0.4974   56.1780    0.5735   56.1862    0.5722   56.1882    0.4812   56.2870    0.5658   56.2956    0.5740   -0.0000   -0.0000
  0.300   56.2598    0.5052   56.2117    0.5816   56.2199    0.5803   56.2220    0.4890   56.3209    0.5741   56.3296    0.5824   -0.0000   -0.0000
  0.310   56.2948    0.5131   56.2466    0.5898   56.2549    0.5885   56.2570    0.4970   56.3560    0.5824   56.3647    0.5907   -0.0000   -0.0000
  0.320   56.3311    0.5210   56.2827    0.5980   56.2910    0.5967   56.2932    0.5049   56.3923    0.5908   56.4010    0.5991   -0.0000   -0.0000
  0.330   56.3685    0.5290   56.3200    0.6063   56.3283    0.6049   56.3306    0.5130   56.4298    0.5993   56.4385    0.6076   -0.0000   -0.0000
  0.340   56.4072    0.5370   56.3585    0.6146   56.3669    0.6132   56.3693    0.5210   56.4685    0.6078   56.4772    0.6161   -0.0000   -0.0000
  0.350   56.4470    0.5450   56.3982    0.6230   56.4066    0.6216   56.4091    0.5291   56.5084    0.6164   56.5171    0.6246   -0.0000   -0.0000
  0.360   56.4881    0.5532   56.4392    0.6314   56.4475    0.6300   56.4502    0.5373   56.5496    0.6250   56.5583    0.6332   -0.0000   -0.0000
  0.370   56.5304    0.5613   56.4813    0.6399   56.4897    0.6385   56.4924    0.5455   56.5920    0.6337   56.6007    0.6419   -0.0000   -0.0000
  0.380   56.5739    0.5696   56.5247    0.6484   56.5331    0.6471   56.5359    0.5538   56.6356    0.6424   56.6443    0.6506   -0.0000   -0.0000
  0.390   56.6187    0.5778   56.5693    0.6571   56.5777    0.6557   56.5806    0.5621   56.6804    0.6512   56.6891    0.6594   -0.0000   -0.0000
  0.400   56.6647    0.5862   56.6151    0.6657   56.6236    0.6643   56.6266    0.5705   56.7265    0.6601   56.7352    0.6683   -0.0000   -0.0000
  0.410   56.7119    0.5945   56.6622    0.6744   56.6707    0.6730   56.6738    0.5789   56.7739    0.6690   56.7826    0.6772   -0.0000   -0.0000
  0.420   56.7604    0.6030   56.7105    0.6832   56.7191    0.6818   56.7223    0.5874   56.8225    0.6780   56.8312    0.6862   -0.0000   -0.0000
  0.430   56.8102    0.6115   56.7601    0.6921   56.7687    0.6906   56.7720    0.5960   56.8723    0.6870   56.8810    0.6952   -0.0000   -0.0000
  0.440   56.8612    0.6201   56.8110    0.7010   56.8195    0.6996   56.8230    0.6046   56.9234    0.6961   56.9322    0.7043   -0.0000   -0.0000
  0.450   56.9135    0.6287   56.8631    0.7100   56.8717    0.7085   56.8753    0.6132   56.9759    0.7053   56.9846    0.7135   -0.0000   -0.0000
  0.460   56.9671    0.6374   56.9165    0.7191   56.9251    0.7176   56.9288    0.6220   57.0295    0.7146   57.0383    0.7228   -0.0000   -0.0000
  0.470   57.0219    0.6461   56.9712    0.7282   56.9798    0.7267   56.9837    0.6308   57.0845    0.7239   57.0933    0.7321   -0.0000   -0.0000
  0.480   57.0781    0.6549   57.0271    0.7374   57.0358    0.7359   57.0398    0.6396   57.1408    0.7333   57.1496    0.7415   -0.0000   -0.0000
  0.490   57.1355    0.6638   57.0844    0.7466   57.0931    0.7451   57.0972    0.6486   57.1984    0.7427   57.2072    0.7509   -0.0000   -0.0000
  0.500   57.1943    0.6728   57.1430    0.7560   57.1517    0.7545   57.1559    0.6576   57.2573    0.7523   57.2661    0.7605   -0.0000   -0.0000
  0.510   57.2544    0.6818   57.2029    0.7654   57.2117    0.7639   57.2160    0.6666   57.3175    0.7619   57.3263    0.7701   -0.0000   -0.0000
  0.520   57.3158    0.6909   57.2641    0.7749   57.2729    0.7734   57.2774    0.6758   57.3791    0.7716   57.3879    0.7798   -0.0000   -0.0000
  0.530   57.3786    0.7001   57.3266    0.7845   57.3355    0.7829   57.3401    0.6850   57.4420    0.7814   57.4508    0.7895   -0.0000   -0.0000
  0.540   57.4427    0.7093   57.3905    0.7941   57.3994    0.7926   57.4042    0.6943   57.5062    0.7912   57.5150    0.7994   -0.0000   -0.0000
  0.550   57.5081    0.7187   57.4558    0.8039   57.4647    0.8023   57.4696    0.7036   57.5718    0.8011   57.5806    0.8093   -0.0000   -0.0000
  0.560   57.5749    0.7281   57.5224    0.8137   57.5313    0.8121   57.5363    0.7131   57.6388    0.8112   57.6476    0.8193   -0.0000   -0.0000
  0.570   57.6431    0.7375   57.5903    0.8236   57.5993    0.8220   57.6045    0.7226   57.7071    0.8213   57.7160    0.8295   -0.0000   -0.0000
  0.580   57.7127    0.7471   57.6597    0.8336   57.6687    0.8320   57.6740    0.7322   57.7769    0.8315   57.7857    0.8396   -0.0000   -0.0000
  0.590   57.7837    0.7567   57.7304    0.8437   57.7394    0.8420   57.7449    0.7419   57.8480    0.8418   57.8569    0.8499   -0.0000   -0.0000
  0.600   57.8560    0.7665   57.8025    0.8538   57.8116    0.8522   57.8172    0.7517   57.9205    0.8521   57.9294    0.8603   -0.0000   -0.0000
  0.610   57.9298    0.7763   57.8761    0.8641   57.8852    0.8624   57.8910    0.7615   57.9945    0.8626   58.0034    0.8708   -0.0000   -0.0000
  0.620   58.0050    0.7862   57.9510    0.8744   57.9602    0.8728   57.9661    0.7714   58.0699    0.8732   58.0788    0.8813   -0.0000   -0.0000
  0.630   58.0816    0.7962   58.0274    0.8849   58.0366    0.8832   58.0427    0.7815   58.1467    0.8838   58.1556    0.8920   -0.0000   -0.0000
  0.640   58.1597    0.8063   58.1053    0.8954   58.1145    0.8937   58.1207    0.7916   58.2250    0.8946   58.2339    0.9028   -0.0000   -0.0000
  0.650   58.2392    0.8164   58.1845    0.9061   58.1938    0.9044   58.2002    0.8018   58.3047    0.9055   58.3136    0.9136   -0.0000   -0.0000
  0.660   58.3202    0.8267   58.2653    0.9168   58.2746    0.9151   58.2812    0.8121   58.3859    0.9164   58.3948    0.9246   -0.0000   -0.0000
  0.670   58.4027    0.8371   58.3475    0.9277   58.3568    0.9260   58.3636    0.8225   58.4686    0.9275   58.4775    0.9357   -0.0000   -0.0000
  0.680   58.4867    0.8475   58.4312    0.9386   58.4406    0.9369   58.4475    0.8330   58.5527    0.9387   58.5617    0.9468   -0.0000   -0.0000
  0.690   58.5722    0.8581   58.5164    0.9497   58.5258    0.9480   58.5330    0.8436   58.6384    0.9500   58.6474    0.9581   -0.0000   -0.0000
  0.700   58.6592    0.8688   58.6032    0.9609   58.6126    0.9591   58.6199    0.8544   58.7257    0.9614   58.7346    0.9695   -0.0000   -0.0000
  0.710   58.7477    0.8796   58.6914    0.9722   58.7009    0.9704   58.7084    0.8652   58.8144    0.9729   58.8234    0.9810   -0.0000   -0.0000
  0.720   58.8378    0.8904   58.7812    0.9835   58.7907    0.9818   58.7984    0.8761   58.9047    0.9845   58.9137    0.9927   -0.0000   -0.0000
  0.730   58.9294    0.9014   58.8725    0.9951   58.8821    0.9933   58.8900    0.8871   58.9966    0.9962   59.0056    1.0044   -0.0000   -0.0000
  0.740   59.0226    0.9125   58.9654    1.0067   58.9750    1.0049   58.9831    0.8983   59.0900    1.0081   59.0990    1.0163   -0.0000   -0.0000
  0.750   59.1174    0.9237   59.0599    1.0184   59.0695    1.0166   59.0779    0.9095   59.1850    1.0201   59.1941    1.0282   -0.0000   -0.0000
  0.760   59.2138    0.9351   59.1560    1.0303   59.1657    1.0285   59.1742    0.9209   59.2817    1.0322   59.2907    1.0404   -0.0000   -0.0000
  0.770   59.3118    0.9465   59.2537    1.0423   59.2634    1.0405   59.2722    0.9324   59.3799    1.0444   59.3890    1.0526   -0.0000   -0.0000
  0.780   59.4114    0.9581   59.3530    1.0545   59.3628    1.0526   59.3717    0.9440   59.4798    1.0568   59.4889    1.0650   -0.0000   -0.0000
  0.790   59.5127    0.9698   59.4540    1.0667   59.4638    1.0649   59.4730    0.9557   59.5814    1.0693   59.5905    1.0775   -0.0000   -0.0000
  0.800   59.6156    0.9816   59.5566    1.0791   59.5664    1.0772   59.5758    0.9676   59.6846    1.0820   59.6937    1.0901   -0.0000   -0.0000
  0.810   59.7202    0.9936   59.6609    1.0916   59.6708    1.0898   59.6804    0.9796   59.7895    1.0947   59.7986    1.1029   -0.0000   -0.0000
  0.820   59.8266    1.0056   59.7669    1.1043   59.7768    1.1024   59.7867    0.9917   59.8961    1.1076   59.9052    1.1158   -0.0000   -0.0000
  0.830   59.9346    1.0178   59.8746    1.1171   59.8845    1.1152   59.8946    1.0039   60.0044    1.1207   60.0135    1.1289   -0.0000   -0.0000
  0.840   60.0443    1.0302   59.9840    1.1301   59.9940    1.1282   60.0043    1.0163   60.1144    1.1339   60.1236    1.1421   -0.0000   -0.0000
  0.850   60.1558    1.0427   60.0952    1.1432   60.1052    1.1412   60.1158    1.0288   60.2262    1.1473   60.2354    1.1554   -0.0000   -0.0000
  0.860   60.2691    1.0553   60.2081    1.1564   60.2181    1.1545   60.2290    1.0415   60.3398    1.1608   60.3490    1.1689   -0.0000   -0.0000
  0.870   60.3842    1.0681   60.3228    1.1698   60.3329    1.1679   60.3440    1.0543   60.4552    1.1744   60.4644    1.1826   -0.0000   -0.0000
  0.880   60.5010    1.0810   60.4393    1.1833   60.4494    1.1814   60.4607    1.0673   60.5723    1.1883   60.5816    1.1964   -0.0000   -0.0000
  0.890   60.6197    1.0941   60.5576    1.1971   60.5677    1.1951   60.5794    1.0804   60.6913    1.2022   60.7006    1.2104   -0.0000   -0.0000
  0.900   60.7402    1.1073   60.6777    1.2109   60.6879    1.2090   60.6998    1.0936   60.8122    1.2164   60.8214    1.2245   -0.0000   -0.0000
  0.910   60.8626    1.1207   60.7997    1.2250   60.8100    1.2230   60.8221    1.1070   60.9349    1.2307   60.9442    1.2389   -0.0000   -0.0000
  0.920   60.9868    1.1342   60.9236    1.2392   60.9339    1.2372   60.9463    1.1206   61.0595    1.2452   61.0688    1.2533   -0.0000   -0.0000
  0.930   61.1130    1.1479   61.0493    1.2536   61.0597    1.2516   61.0724    1.1343   61.1860    1.2598   61.1953    1.2680   -0.0000   -0.0000
  0.940   61.2411    1.1617   61.1770    1.2681   61.1874    1.2661   61.2004    1.1482   61.3145    1.2747   61.3238    1.2829   -0.0000   -0.0000
  0.950   61.3711    1.1758   61.3067    1.2828   61.3171    1.2808   61.3304    1.1623   61.4448    1.2897   61.4542    1.2979   -0.0000   -0.0000
  0.960   61.5031    1.1900   61.4382    1.2978   61.4488    1.2957   61.4623    1.1766   61.5772    1.3049   61.5866    1.3131   -0.0000   -0.0000
  0.970   61.6371    1.2044   61.5718    1.3129   61.5824    1.3108   61.5963    1.1910   61.7116    1.3203   61.7210    1.3285   -0.0000   -0.0000
  0.980   61.7731    1.2189   61.7074    1.3281   61.7180    1.3261   61.7322    1.2056   61.8480    1.3359   61.8574    1.3441   -0.0000   -0.0000
  0.990   61.9112    1.2337   61.8450    1.3436   61.8557    1.3416   61.8702    1.2204   61.9864    1.3517   61.9959    1.3599   -0.0000   -0.0000
  1.000   62.0513    1.2486   61.9847    1.3593   61.9954    1.3572   62.0102    1.2353   62.1269    1.3677   62.1364    1.3758   -0.0000   -0.0000
  1.010   62.1935    1.2637   62.1265    1.3752   62.1372    1.3731   62.1524    1.2505   62.2695    1.3839   62.2790    1.3920   -0.0000   -0.0000
  1.020   62.3378    1.2790   62.2703    1.3913   62.2811    1.3892   62.2966    1.2658   62.4143    1.4003   62.4238    1.4084   -0.0000   -0.0000
  1.030   62.4843    1.2946   62.4163    1.4076   62.4272    1.4055   62.4430    1.2814   62.5612    1.4169   62.5707    1.4251   -0.0000   -0.0000
  1.040   62.6329    1.3103   62.5645    1.4241   62.5754    1.4220   62.5916    1.2972   62.7102    1.4337   62.7197    1.4419   -0.0000   -0.0000
  1.050   62.7837    1.3262   62.7148    1.4408   62.7258    1.4387   62.7423    1.3131   62.8615    1.4508   62.8710    1.4590   -0.0000   -0.0000
  1.060   62.9368    1.3423   62.8674    1.4577   62.8784    1.4556   62.8953    1.3293   63.0150    1.4681   63.0245    1.4762   -0.0000   -0.0000
  1.070   63.0921    1.3587   63.0222    1.4749   63.0332    1.4728   63.0505    1.3457   63.1707    1.4856   63.1803    1.4938   -0.0000   -0.0000
  1.080   63.2496    1.3753   63.1792    1.4923   63.1904    1.4902   63.2080    1.3623   63.3287    1.5033   63.3383    1.5115   -0.0000   -0.0000
  1.090   63.4095    1.3921   63.3386    1.5100   63.3498    1.5078   63.3678    1.3792   63.4891    1.5213   63.4987    1.5295   -0.0000   -0.0000
  1.100   63.5717    1.4091   63.5003    1.5279   63.5116    1.5257   63.5300    1.3963   63.6518    1.5396   63.6614    1.5478   -0.0000   -0.0000
  1.110   63.7363    1.4264   63.6644    1.5460   63.6757    1.5438   63.6945    1.4136   63.8169    1.5581   63.8265    1.5663   -0.0000   -0.0000
  1.120   63.9033    1.4439   63.8308    1.5644   63.8422    1.5622   63.8614    1.4311   63.9843    1.5768   63.9941    1.5850   -0.0000   -0.0000
  1.130   64.0728    1.4616   63.9997    1.5831   64.0111    1.5809   64.0308    1.4489   64.1543    1.5959   64.1640    1.6040   -0.0000   -0.0000
  1.140   64.2447    1.4796   64.1711    1.6020   64.1826    1.5998   64.2026    1.4670   64.3267    1.6151   64.3365    1.6233   -0.0000   -0.0000
  1.150   64.4191    1.4979   64.3449    1.6212   64.3565    1.6189   64.3769    1.4853   64.5016    1.6347   64.5114    1.6429   -0.0000   -0.0000
  1.160   64.5960    1.5164   64.5213    1.6406   64.5329    1.6384   64.5538    1.5039   64.6791    1.6546   64.6889    1.6628   -0.0000   -0.0000
  1.170   64.7755    1.5352   64.7002    1.6604   64.7119    1.6581   64.7332    1.5227   64.8592    1.6747   64.8690    1.6829   -0.0000   -0.0000
  1.180   64.9576    1.5543   64.8818    1.6804   64.8935    1.6781   64.9153    1.5418   65.0418    1.6951   65.0517    1.7033   -0.0000   -0.0000
  1.190   65.1424    1.5736   65.0659    1.7007   65.0777    1.6985   65.1000    1.5612   65.2272    1.7159   65.2371    1.7241   -0.0000   -0.0000
  1.200   65.3299    1.5933   65.2528    1.7213   65.2646    1.7191   65.2874    1.5809   65.4152    1.7369   65.4251    1.7451   -0.0000   -0.0000
  1.210   65.5201    1.6132   65.4423    1.7423   65.4542    1.7400   65.4775    1.6009   65.6060    1.7582   65.6159    1.7664   -0.0000   -0.0000
  1.220   65.7130    1.6334   65.6346    1.7635   65.6466    1.7612   65.6703    1.6212   65.7995    1.7799   65.8095    1.7881   -0.0000   -0.0000
  1.230   65.9087    1.6539   65.8297    1.7851   65.8418    1.7828   65.8660    1.6418   65.9958    1.8019   66.0058    1.8101   -0.0000   -0.0000
  1.240   66.1073    1.6748   66.0277    1.8070   66.0398    1.8047   66.0645    1.6627   66.1950    1.8242   66.2051    1.8325   -0.0000   -0.0000
  1.250   66.3088    1.6959   66.2285    1.8292   66.2407    1.8269   66.2660    1.6839   66.3972    1.8469   66.4072    1.8551   -0.0000   -0.0000
  1.260   66.5132    1.7174   66.4322    1.8518   66.4445    1.8494   66.4703    1.7054   66.6022    1.8699   66.6123    1.8782   -0.0000   -0.0000
  1.270   66.7206    1.7393   66.6390    1.8747   66.6513    1.8724   66.6776    1.7273   66.8103    1.8933   66.8204    1.9016   -0.0000   -0.0000
  1.280   66.9311    1.7614   66.8487    1.8980   66.8610    1.8956   66.8880    1.7495   67.0213    1.9171   67.0315    1.9253   -0.0000   -0.0000
