# Macroscopic dielectric function obtained with the BS equation.
#  RPA L0 with KS energies and KS wavefunctions     LOCAL FIELD EFFECTS INCLUDED
# RESONANT-ONLY calculation
# Coulomb term constructed with full W(G1,G2)
# Scissor operator energy =  0.8000 [eV]
# nstates included in the diagonalization = 96
# npweps  = 113
# npwwfn  = 283
# nbands  = 8
# loband  = 2
# nkibz   = 3
# nkbz    = 8
# Lorentzian broadening =  0.0000 [eV]
# List of q-points for the optical limit:
# q =  0.938821, 0.000000, 0.000000, [Reduced coords] 
# q =  0.000000, 0.938821, 0.000000, [Reduced coords] 
# q =  0.000000, 0.000000, 0.938821, [Reduced coords] 
# q =  0.000000, 0.813043, 0.813043, [Reduced coords] 
# q =  0.813043, 0.000000, 0.813043, [Reduced coords] 
# q =  0.813043, 0.813043, 0.000000, [Reduced coords] 
# omega [eV]    RE(eps(q=1)) IM(eps(q=1) RE(eps(q=2) ) ... DOS   IDOS
  0.000   57.5625    0.4342   57.4466    0.5788   57.4664    0.5740   57.4978    0.3957   57.6700    0.5278   57.6607    0.5350   -0.0000   -0.0000
  0.010   57.5631    0.4531   57.4469    0.5982   57.4667    0.5933   57.4984    0.4147   57.6704    0.5477   57.6611    0.5549   -0.0000   -0.0000
  0.020   57.5649    0.4719   57.4485    0.6176   57.4682    0.6127   57.5003    0.4338   57.6721    0.5676   57.6628    0.5748   -0.0000   -0.0000
  0.030   57.5680    0.4908   57.4513    0.6370   57.4709    0.6321   57.5034    0.4529   57.6750    0.5875   57.6657    0.5948   -0.0000   -0.0000
  0.040   57.5722    0.5097   57.4553    0.6564   57.4749    0.6515   57.5078    0.4720   57.6791    0.6075   57.6698    0.6148   -0.0000   -0.0000
  0.050   57.5778    0.5287   57.4605    0.6759   57.4801    0.6710   57.5133    0.4912   57.6845    0.6276   57.6752    0.6348   -0.0000   -0.0000
  0.060   57.5845    0.5477   57.4670    0.6954   57.4866    0.6905   57.5202    0.5103   57.6911    0.6476   57.6818    0.6549   -0.0000   -0.0000
  0.070   57.5925    0.5667   57.4747    0.7150   57.4943    0.7101   57.5282    0.5296   57.6990    0.6677   57.6897    0.6750   -0.0000   -0.0000
  0.080   57.6018    0.5858   57.4836    0.7347   57.5032    0.7297   57.5375    0.5488   57.7081    0.6879   57.6989    0.6952   -0.0000   -0.0000
  0.090   57.6123    0.6049   57.4938    0.7543   57.5134    0.7494   57.5481    0.5682   57.7185    0.7081   57.7092    0.7155   -0.0000   -0.0000
  0.100   57.6240    0.6241   57.5052    0.7741   57.5248    0.7692   57.5599    0.5875   57.7301    0.7284   57.7209    0.7358   -0.0000   -0.0000
  0.110   57.6370    0.6433   57.5179    0.7939   57.5374    0.7890   57.5729    0.6069   57.7430    0.7487   57.7337    0.7561   -0.0000   -0.0000
  0.120   57.6512    0.6626   57.5318    0.8138   57.5513    0.8088   57.5872    0.6264   57.7571    0.7691   57.7479    0.7765   -0.0000   -0.0000
  0.130   57.6667    0.6819   57.5469    0.8337   57.5664    0.8287   57.6027    0.6459   57.7725    0.7896   57.7633    0.7970   -0.0000   -0.0000
  0.140   57.6835    0.7013   57.5633    0.8537   57.5828    0.8487   57.6195    0.6655   57.7892    0.8101   57.7799    0.8175   -0.0000   -0.0000
  0.150   57.7015    0.7208   57.5810    0.8738   57.6004    0.8688   57.6375    0.6851   57.8071    0.8307   57.7978    0.8381   -0.0000   -0.0000
  0.160   57.7207    0.7403   57.5998    0.8939   57.6192    0.8889   57.6568    0.7048   57.8263    0.8513   57.8170    0.8588   -0.0000   -0.0000
  0.170   57.7412    0.7599   57.6200    0.9141   57.6393    0.9091   57.6774    0.7245   57.8467    0.8721   57.8374    0.8795   -0.0000   -0.0000
  0.180   57.7630    0.7795   57.6413    0.9344   57.6607    0.9294   57.6992    0.7444   57.8684    0.8929   57.8591    0.9004   -0.0000   -0.0000
  0.190   57.7860    0.7993   57.6640    0.9548   57.6833    0.9497   57.7222    0.7643   57.8914    0.9138   57.8821    0.9213   -0.0000   -0.0000
  0.200   57.8103    0.8191   57.6879    0.9752   57.7072    0.9702   57.7466    0.7842   57.9156    0.9347   57.9063    0.9422   -0.0000   -0.0000
  0.210   57.8359    0.8389   57.7131    0.9958   57.7324    0.9907   57.7722    0.8043   57.9412    0.9558   57.9318    0.9633   -0.0000   -0.0000
  0.220   57.8628    0.8589   57.7395    1.0164   57.7588    1.0113   57.7991    0.8244   57.9680    0.9769   57.9586    0.9845   -0.0000   -0.0000
  0.230   57.8909    0.8789   57.7672    1.0371   57.7865    1.0321   57.8272    0.8446   57.9961    0.9982   57.9867    1.0057   -0.0000   -0.0000
  0.240   57.9203    0.8991   57.7962    1.0579   57.8154    1.0529   57.8566    0.8649   58.0254    1.0195   58.0161    1.0271   -0.0000   -0.0000
  0.250   57.9510    0.9193   57.8264    1.0789   57.8457    1.0738   57.8874    0.8853   58.0561    1.0409   58.0468    1.0485   -0.0000   -0.0000
  0.260   57.9830    0.9396   57.8579    1.0999   57.8772    1.0948   57.9194    0.9058   58.0881    1.0625   58.0787    1.0701   -0.0000   -0.0000
  0.270   58.0163    0.9600   57.8908    1.1210   57.9100    1.1159   57.9527    0.9263   58.1213    1.0841   58.1120    1.0917   -0.0000   -0.0000
  0.280   58.0509    0.9805   57.9249    1.1422   57.9441    1.1371   57.9873    0.9470   58.1559    1.1059   58.1466    1.1135   -0.0000   -0.0000
  0.290   58.0868    1.0011   57.9603    1.1636   57.9795    1.1585   58.0232    0.9678   58.1918    1.1277   58.1824    1.1354   -0.0000   -0.0000
  0.300   58.1240    1.0218   57.9970    1.1850   58.0162    1.1799   58.0604    0.9886   58.2290    1.1497   58.2196    1.1573   -0.0000   -0.0000
  0.310   58.1625    1.0427   58.0350    1.2066   58.0542    1.2015   58.0989    1.0096   58.2675    1.1718   58.2581    1.1794   -0.0000   -0.0000
  0.320   58.2023    1.0636   58.0743    1.2283   58.0935    1.2231   58.1388    1.0307   58.3073    1.1940   58.2980    1.2017   -0.0000   -0.0000
  0.330   58.2435    1.0846   58.1149    1.2501   58.1341    1.2450   58.1800    1.0519   58.3485    1.2163   58.3391    1.2240   -0.0000   -0.0000
  0.340   58.2860    1.1058   58.1569    1.2721   58.1761    1.2669   58.2225    1.0732   58.3910    1.2388   58.3817    1.2465   -0.0000   -0.0000
  0.350   58.3298    1.1271   58.2002    1.2941   58.2194    1.2889   58.2663    1.0946   58.4349    1.2613   58.4255    1.2691   -0.0000   -0.0000
  0.360   58.3750    1.1485   58.2448    1.3164   58.2640    1.3111   58.3115    1.1162   58.4801    1.2841   58.4707    1.2918   -0.0000   -0.0000
  0.370   58.4215    1.1700   58.2908    1.3387   58.3099    1.3335   58.3580    1.1379   58.5266    1.3069   58.5172    1.3147   -0.0000   -0.0000
  0.380   58.4694    1.1917   58.3381    1.3612   58.3572    1.3560   58.4059    1.1597   58.5746    1.3299   58.5652    1.3377   -0.0000   -0.0000
  0.390   58.5186    1.2135   58.3867    1.3838   58.4059    1.3786   58.4551    1.1816   58.6239    1.3531   58.6144    1.3609   -0.0000   -0.0000
  0.400   58.5692    1.2354   58.4367    1.4066   58.4559    1.4013   58.5057    1.2037   58.6745    1.3764   58.6651    1.3842   -0.0000   -0.0000
  0.410   58.6212    1.2575   58.4881    1.4295   58.5073    1.4243   58.5577    1.2259   58.7266    1.3998   58.7171    1.4077   -0.0000   -0.0000
  0.420   58.6746    1.2797   58.5409    1.4526   58.5600    1.4473   58.6111    1.2483   58.7800    1.4234   58.7705    1.4313   -0.0000   -0.0000
  0.430   58.7294    1.3021   58.5950    1.4758   58.6142    1.4706   58.6658    1.2708   58.8348    1.4472   58.8254    1.4551   -0.0000   -0.0000
  0.440   58.7855    1.3246   58.6505    1.4993   58.6697    1.4940   58.7220    1.2935   58.8911    1.4711   58.8816    1.4790   -0.0000   -0.0000
  0.450   58.8431    1.3473   58.7075    1.5228   58.7266    1.5175   58.7795    1.3163   58.9487    1.4952   58.9392    1.5031   -0.0000   -0.0000
  0.460   58.9021    1.3701   58.7658    1.5466   58.7849    1.5412   58.8385    1.3393   59.0078    1.5195   58.9983    1.5274   -0.0000   -0.0000
  0.470   58.9625    1.3931   58.8255    1.5705   58.8447    1.5651   58.8989    1.3624   59.0683    1.5439   59.0588    1.5518   -0.0000   -0.0000
  0.480   59.0243    1.4163   58.8867    1.5946   58.9058    1.5892   58.9607    1.3857   59.1302    1.5685   59.1207    1.5765   -0.0000   -0.0000
  0.490   59.0876    1.4396   58.9493    1.6188   58.9684    1.6135   59.0240    1.4092   59.1936    1.5933   59.1841    1.6013   -0.0000   -0.0000
  0.500   59.1524    1.4631   59.0133    1.6433   59.0324    1.6379   59.0887    1.4328   59.2585    1.6183   59.2489    1.6263   -0.0000   -0.0000
  0.510   59.2186    1.4868   59.0788    1.6680   59.0979    1.6626   59.1549    1.4566   59.3248    1.6435   59.3152    1.6515   -0.0000   -0.0000
  0.520   59.2862    1.5107   59.1457    1.6928   59.1649    1.6874   59.2225    1.4806   59.3926    1.6689   59.3830    1.6769   -0.0000   -0.0000
  0.530   59.3554    1.5348   59.2141    1.7179   59.2333    1.7124   59.2917    1.5048   59.4618    1.6945   59.4523    1.7025   -0.0000   -0.0000
  0.540   59.4260    1.5590   59.2840    1.7431   59.3032    1.7377   59.3623    1.5292   59.5326    1.7203   59.5230    1.7283   -0.0000   -0.0000
  0.550   59.4982    1.5835   59.3554    1.7686   59.3745    1.7631   59.4344    1.5538   59.6049    1.7463   59.5953    1.7543   -0.0000   -0.0000
  0.560   59.5718    1.6081   59.4283    1.7942   59.4474    1.7888   59.5080    1.5786   59.6787    1.7725   59.6691    1.7806   -0.0000   -0.0000
  0.570   59.6470    1.6330   59.5027    1.8201   59.5218    1.8147   59.5832    1.6036   59.7540    1.7989   59.7444    1.8070   -0.0000   -0.0000
  0.580   59.7237    1.6580   59.5786    1.8462   59.5977    1.8407   59.6598    1.6288   59.8309    1.8256   59.8213    1.8337   -0.0000   -0.0000
  0.590   59.8020    1.6833   59.6560    1.8726   59.6752    1.8671   59.7381    1.6542   59.9093    1.8525   59.8997    1.8606   -0.0000   -0.0000
  0.600   59.8818    1.7088   59.7350    1.8991   59.7541    1.8936   59.8179    1.6798   59.9892    1.8796   59.9796    1.8878   -0.0000   -0.0000
  0.610   59.9632    1.7345   59.8155    1.9259   59.8347    1.9204   59.8992    1.7056   60.0708    1.9070   60.0612    1.9151   -0.0000   -0.0000
  0.620   60.0461    1.7605   59.8976    1.9530   59.9168    1.9474   59.9821    1.7317   60.1539    1.9346   60.1443    1.9428   -0.0000   -0.0000
  0.630   60.1307    1.7867   59.9813    1.9803   60.0005    1.9747   60.0666    1.7580   60.2387    1.9624   60.2290    1.9706   -0.0000   -0.0000
  0.640   60.2169    1.8131   60.0666    2.0078   60.0858    2.0023   60.1528    1.7846   60.3250    1.9906   60.3154    1.9988   -0.0000   -0.0000
  0.650   60.3047    1.8397   60.1535    2.0356   60.1727    2.0300   60.2405    1.8114   60.4130    2.0189   60.4034    2.0272   -0.0000   -0.0000
  0.660   60.3941    1.8666   60.2420    2.0637   60.2612    2.0581   60.3299    1.8384   60.5026    2.0476   60.4930    2.0558   -0.0000   -0.0000
  0.670   60.4852    1.8938   60.3321    2.0920   60.3513    2.0864   60.4209    1.8657   60.5939    2.0765   60.5842    2.0848   -0.0000   -0.0000
  0.680   60.5779    1.9212   60.4239    2.1206   60.4431    2.1150   60.5136    1.8932   60.6869    2.1057   60.6772    2.1140   -0.0000   -0.0000
  0.690   60.6723    1.9489   60.5173    2.1495   60.5366    2.1439   60.6080    1.9211   60.7815    2.1352   60.7718    2.1435   -0.0000   -0.0000
  0.700   60.7684    1.9769   60.6125    2.1787   60.6317    2.1730   60.7040    1.9492   60.8778    2.1650   60.8681    2.1733   -0.0000   -0.0000
  0.710   60.8662    2.0051   60.7093    2.2081   60.7285    2.2025   60.8018    1.9775   60.9759    2.1950   60.9661    2.2034   -0.0000   -0.0000
  0.720   60.9658    2.0337   60.8078    2.2379   60.8271    2.2322   60.9013    2.0062   61.0756    2.2254   61.0659    2.2338   -0.0000   -0.0000
  0.730   61.0670    2.0625   60.9080    2.2680   60.9273    2.2623   61.0025    2.0351   61.1772    2.2561   61.1674    2.2645   -0.0000   -0.0000
  0.740   61.1701    2.0916   61.0100    2.2983   61.0293    2.2926   61.1054    2.0643   61.2804    2.2871   61.2707    2.2955   -0.0000   -0.0000
  0.750   61.2749    2.1210   61.1137    2.3290   61.1331    2.3233   61.2102    2.0939   61.3855    2.3184   61.3757    2.3268   -0.0000   -0.0000
  0.760   61.3814    2.1507   61.2192    2.3600   61.2386    2.3543   61.3167    2.1237   61.4923    2.3501   61.4825    2.3585   -0.0000   -0.0000
  0.770   61.4898    2.1807   61.3265    2.3914   61.3459    2.3856   61.4250    2.1539   61.6010    2.3820   61.5912    2.3905   -0.0000   -0.0000
  0.780   61.6001    2.2111   61.4356    2.4231   61.4550    2.4173   61.5352    2.1843   61.7115    2.4144   61.7017    2.4228   -0.0000   -0.0000
  0.790   61.7121    2.2418   61.5466    2.4551   61.5659    2.4493   61.6472    2.2152   61.8238    2.4471   61.8140    2.4555   -0.0000   -0.0000
  0.800   61.8260    2.2728   61.6593    2.4875   61.6787    2.4817   61.7610    2.2463   61.9381    2.4801   61.9282    2.4886   -0.0000   -0.0000
  0.810   61.9418    2.3041   61.7740    2.5202   61.7934    2.5144   61.8768    2.2778   62.0542    2.5135   62.0443    2.5220   -0.0000   -0.0000
  0.820   62.0595    2.3358   61.8905    2.5533   61.9099    2.5475   61.9944    2.3096   62.1722    2.5473   62.1623    2.5558   -0.0000   -0.0000
  0.830   62.1792    2.3679   62.0089    2.5868   62.0283    2.5810   62.1140    2.3418   62.2921    2.5814   62.2822    2.5900   -0.0000   -0.0000
  0.840   62.3007    2.4003   62.1292    2.6206   62.1487    2.6148   62.2354    2.3743   62.4140    2.6160   62.4041    2.6245   -0.0000   -0.0000
  0.850   62.4242    2.4331   62.2515    2.6549   62.2710    2.6490   62.3589    2.4073   62.5378    2.6509   62.5279    2.6595   -0.0000   -0.0000
  0.860   62.5497    2.4663   62.3757    2.6895   62.3952    2.6837   62.4843    2.4406   62.6636    2.6863   62.6537    2.6949   -0.0000   -0.0000
  0.870   62.6772    2.4999   62.5019    2.7246   62.5214    2.7187   62.6117    2.4743   62.7915    2.7221   62.7815    2.7307   -0.0000   -0.0000
  0.880   62.8068    2.5338   62.6301    2.7601   62.6497    2.7542   62.7412    2.5084   62.9214    2.7583   62.9114    2.7669   -0.0000   -0.0000
  0.890   62.9383    2.5682   62.7604    2.7959   62.7799    2.7900   62.8727    2.5429   63.0533    2.7949   63.0433    2.8035   -0.0000   -0.0000
  0.900   63.0720    2.6030   62.8926    2.8323   62.9122    2.8263   63.0063    2.5778   63.1873    2.8320   63.1773    2.8406   -0.0000   -0.0000
  0.910   63.2077    2.6382   63.0270    2.8690   63.0466    2.8631   63.1419    2.6131   63.3234    2.8695   63.3134    2.8781   -0.0000   -0.0000
  0.920   63.3456    2.6738   63.1635    2.9063   63.1831    2.9003   63.2797    2.6489   63.4616    2.9075   63.4516    2.9161   -0.0000   -0.0000
  0.930   63.4856    2.7099   63.3020    2.9439   63.3217    2.9380   63.4196    2.6851   63.6020    2.9459   63.5920    2.9546   -0.0000   -0.0000
  0.940   63.6277    2.7464   63.4428    2.9821   63.4624    2.9761   63.5617    2.7217   63.7446    2.9848   63.7345    2.9935   -0.0000   -0.0000
  0.950   63.7721    2.7834   63.5856    3.0207   63.6054    3.0147   63.7060    2.7589   63.8893    3.0243   63.8793    3.0330   -0.0000   -0.0000
  0.960   63.9187    2.8209   63.7307    3.0598   63.7505    3.0538   63.8525    2.7965   64.0363    3.0642   64.0263    3.0729   -0.0000   -0.0000
  0.970   64.0675    2.8588   63.8780    3.0995   63.8978    3.0934   64.0012    2.8345   64.1856    3.1046   64.1755    3.1134   -0.0000   -0.0000
  0.980   64.2186    2.8972   64.0276    3.1396   64.0474    3.1335   64.1522    2.8731   64.3371    3.1456   64.3270    3.1543   -0.0000   -0.0000
  0.990   64.3720    2.9361   64.1794    3.1802   64.1993    3.1742   64.3056    2.9122   64.4910    3.1871   64.4808    3.1958   -0.0000   -0.0000
  1.000   64.5278    2.9756   64.3336    3.2214   64.3534    3.2154   64.4612    2.9518   64.6471    3.2291   64.6370    3.2379   -0.0000   -0.0000
  1.010   64.6859    3.0156   64.4901    3.2632   64.5099    3.2571   64.6192    2.9919   64.8057    3.2718   64.7955    3.2805   -0.0000   -0.0000
  1.020   64.8464    3.0561   64.6489    3.3055   64.6688    3.2994   64.7796    3.0325   64.9666    3.3149   64.9565    3.3237   -0.0000   -0.0000
  1.030   65.0093    3.0971   64.8101    3.3483   64.8301    3.3422   64.9425    3.0737   65.1300    3.3587   65.1199    3.3675   -0.0000   -0.0000
  1.040   65.1746    3.1387   64.9738    3.3918   64.9938    3.3857   65.1077    3.1155   65.2959    3.4031   65.2857    3.4119   -0.0000   -0.0000
  1.050   65.3425    3.1809   65.1399    3.4358   65.1599    3.4297   65.2755    3.1578   65.4642    3.4480   65.4540    3.4568   -0.0000   -0.0000
  1.060   65.5129    3.2237   65.3085    3.4805   65.3285    3.4743   65.4458    3.2007   65.6351    3.4936   65.6249    3.5024   -0.0000   -0.0000
  1.070   65.6858    3.2670   65.4796    3.5258   65.4997    3.5196   65.6186    3.2442   65.8085    3.5399   65.7983    3.5487   -0.0000   -0.0000
  1.080   65.8613    3.3110   65.6533    3.5717   65.6734    3.5655   65.7940    3.2884   65.9845    3.5867   65.9743    3.5956   -0.0000   -0.0000
  1.090   66.0395    3.3556   65.8296    3.6183   65.8497    3.6120   65.9721    3.3331   66.1632    3.6343   66.1530    3.6431   -0.0000   -0.0000
  1.100   66.2202    3.4009   66.0085    3.6655   66.0287    3.6593   66.1528    3.3785   66.3445    3.6825   66.3343    3.6914   -0.0000   -0.0000
  1.110   66.4037    3.4468   66.1901    3.7134   66.2103    3.7072   66.3362    3.4246   66.5286    3.7315   66.5183    3.7403   -0.0000   -0.0000
  1.120   66.5900    3.4933   66.3743    3.7620   66.3946    3.7557   66.5223    3.4713   66.7153    3.7811   66.7050    3.7900   -0.0000   -0.0000
  1.130   66.7789    3.5406   66.5613    3.8113   66.5816    3.8051   66.7112    3.5187   66.9049    3.8315   66.8946    3.8404   -0.0000   -0.0000
  1.140   66.9708    3.5885   66.7511    3.8614   66.7714    3.8551   66.9029    3.5668   67.0973    3.8826   67.0869    3.8915   -0.0000   -0.0000
  1.150   67.1654    3.6372   66.9437    3.9122   66.9640    3.9059   67.0975    3.6157   67.2925    3.9345   67.2822    3.9434   -0.0000   -0.0000
  1.160   67.3629    3.6866   67.1391    3.9637   67.1595    3.9574   67.2949    3.6652   67.4906    3.9871   67.4803    3.9961   -0.0000   -0.0000
  1.170   67.5634    3.7367   67.3375    4.0160   67.3579    4.0097   67.4953    3.7156   67.6917    4.0406   67.6813    4.0495   -0.0000   -0.0000
  1.180   67.7669    3.7876   67.5388    4.0692   67.5592    4.0628   67.6987    3.7667   67.8958    4.0949   67.8854    4.1038   -0.0000   -0.0000
  1.190   67.9734    3.8393   67.7430    4.1231   67.7635    4.1167   67.9050    3.8185   68.1029    4.1500   68.0925    4.1589   -0.0000   -0.0000
  1.200   68.1829    3.8918   67.9503    4.1779   67.9708    4.1715   68.1145    3.8712   68.3130    4.2060   68.3026    4.2149   -0.0000   -0.0000
  1.210   68.3956    3.9452   68.1607    4.2335   68.1813    4.2271   68.3270    3.9247   68.5263    4.2628   68.5159    4.2718   -0.0000   -0.0000
  1.220   68.6114    3.9993   68.3741    4.2900   68.3948    4.2836   68.5428    3.9791   68.7428    4.3206   68.7324    4.3295   -0.0000   -0.0000
  1.230   68.8304    4.0544   68.5908    4.3474   68.6115    4.3410   68.7617    4.0343   68.9625    4.3792   68.9521    4.3882   -0.0000   -0.0000
  1.240   69.0527    4.1103   68.8106    4.4057   68.8314    4.3993   68.9839    4.0904   69.1855    4.4389   69.1750    4.4478   -0.0000   -0.0000
  1.250   69.2783    4.1671   69.0338    4.4650   69.0545    4.4585   69.2094    4.1475   69.4117    4.4994   69.4013    4.5084   -0.0000   -0.0000
  1.260   69.5072    4.2248   69.2602    4.5252   69.2810    4.5187   69.4382    4.2054   69.6414    4.5610   69.6309    4.5699   -0.0000   -0.0000
  1.270   69.7396    4.2835   69.4900    4.5864   69.5109    4.5799   69.6705    4.2643   69.8745    4.6236   69.8640    4.6325   -0.0000   -0.0000
  1.280   69.9754    4.3432   69.7232    4.6486   69.7441    4.6421   69.9063    4.3242   70.1110    4.6872   70.1005    4.6961   -0.0001   -0.0000
