# Macroscopic dielectric function obtained with the BS equation.
#  RPA L0 with KS energies and KS wavefunctions     LOCAL FIELD EFFECTS INCLUDED
# RESONANT-ONLY calculation
# Coulomb term constructed with full W(G1,G2)
# Scissor operator energy =  0.8000 [eV]
# nstates included in the diagonalization = 96
# npweps  = 113
# npwwfn  = 283
# nbands  = 8
# loband  = 2
# nkibz   = 3
# nkbz    = 8
# Lorentzian broadening =  0.0000 [eV]
# List of q-points for the optical limit:
# q =  0.938821, 0.000000, 0.000000, [Reduced coords] 
# q =  0.000000, 0.938821, 0.000000, [Reduced coords] 
# q =  0.000000, 0.000000, 0.938821, [Reduced coords] 
# q =  0.000000, 0.813043, 0.813043, [Reduced coords] 
# q =  0.813043, 0.000000, 0.813043, [Reduced coords] 
# q =  0.813043, 0.813043, 0.000000, [Reduced coords] 
# omega [eV]    RE(eps(q=1)) IM(eps(q=1) RE(eps(q=2) ) ... DOS   IDOS
  0.000   54.7512    0.1284   54.7401    0.1549   54.7463    0.1531   54.7413    0.1168   54.7867    0.1577   54.7844    0.1607    0.0000    0.0000
  0.010   54.7517    0.1308   54.7406    0.1575   54.7468    0.1556   54.7419    0.1193   54.7873    0.1603   54.7849    0.1634    0.0000    0.0000
  0.020   54.7533    0.1332   54.7422    0.1600   54.7484    0.1582   54.7435    0.1218   54.7889    0.1629   54.7865    0.1660    0.0000    0.0000
  0.030   54.7560    0.1357   54.7448    0.1625   54.7511    0.1607   54.7461    0.1243   54.7915    0.1656   54.7892    0.1686    0.0000    0.0000
  0.040   54.7597    0.1381   54.7486    0.1650   54.7548    0.1632   54.7499    0.1267   54.7953    0.1682   54.7929    0.1713    0.0000    0.0000
  0.050   54.7645    0.1406   54.7534    0.1676   54.7597    0.1658   54.7547    0.1292   54.8001    0.1709   54.7977    0.1739    0.0000    0.0000
  0.060   54.7704    0.1431   54.7592    0.1701   54.7656    0.1683   54.7606    0.1317   54.8060    0.1736   54.8036    0.1766    0.0000    0.0000
  0.070   54.7774    0.1455   54.7662    0.1727   54.7725    0.1709   54.7675    0.1343   54.8129    0.1763   54.8106    0.1793    0.0000    0.0000
  0.080   54.7854    0.1480   54.7742    0.1752   54.7805    0.1734   54.7755    0.1368   54.8209    0.1789   54.8186    0.1820    0.0000    0.0000
  0.090   54.7945    0.1505   54.7832    0.1778   54.7896    0.1760   54.7846    0.1393   54.8300    0.1817   54.8277    0.1847    0.0000    0.0000
  0.100   54.8047    0.1530   54.7934    0.1804   54.7998    0.1786   54.7948    0.1418   54.8402    0.1844   54.8379    0.1874    0.0000    0.0000
  0.110   54.8159    0.1556   54.8046    0.1830   54.8110    0.1812   54.8060    0.1444   54.8514    0.1871   54.8491    0.1901    0.0000    0.0000
  0.120   54.8282    0.1581   54.8169    0.1856   54.8234    0.1839   54.8183    0.1469   54.8638    0.1898   54.8615    0.1928    0.0000    0.0000
  0.130   54.8416    0.1606   54.8303    0.1883   54.8367    0.1865   54.8317    0.1495   54.8772    0.1926   54.8749    0.1956    0.0000    0.0000
  0.140   54.8561    0.1632   54.8447    0.1909   54.8512    0.1891   54.8462    0.1521   54.8917    0.1954   54.8894    0.1983    0.0000    0.0000
  0.150   54.8716    0.1657   54.8602    0.1936   54.8668    0.1918   54.8617    0.1547   54.9072    0.1981   54.9049    0.2011    0.0000    0.0000
  0.160   54.8883    0.1683   54.8769    0.1962   54.8834    0.1945   54.8784    0.1573   54.9239    0.2009   54.9216    0.2039    0.0000    0.0000
  0.170   54.9060    0.1709   54.8945    0.1989   54.9011    0.1971   54.8961    0.1599   54.9416    0.2037   54.9393    0.2067    0.0000    0.0000
  0.180   54.9248    0.1735   54.9133    0.2016   54.9199    0.1998   54.9149    0.1625   54.9604    0.2065   54.9582    0.2095    0.0000    0.0000
  0.190   54.9447    0.1761   54.9332    0.2043   54.9398    0.2026   54.9348    0.1652   54.9804    0.2094   54.9781    0.2124    0.0000    0.0000
  0.200   54.9657    0.1787   54.9541    0.2071   54.9608    0.2053   54.9557    0.1678   55.0014    0.2122   54.9991    0.2152    0.0000    0.0000
  0.210   54.9877    0.1813   54.9762    0.2098   54.9829    0.2080   54.9778    0.1705   55.0235    0.2151   55.0212    0.2181    0.0000    0.0000
  0.220   55.0109    0.1840   54.9993    0.2125   55.0060    0.2108   55.0010    0.1732   55.0467    0.2180   55.0444    0.2209    0.0000    0.0000
  0.230   55.0352    0.1867   55.0236    0.2153   55.0303    0.2136   55.0253    0.1758   55.0710    0.2209   55.0687    0.2238    0.0000    0.0000
  0.240   55.0606    0.1893   55.0489    0.2181   55.0557    0.2163   55.0506    0.1785   55.0964    0.2238   55.0941    0.2267    0.0000    0.0000
  0.250   55.0870    0.1920   55.0754    0.2209   55.0822    0.2191   55.0771    0.1813   55.1229    0.2267   55.1206    0.2297    0.0000    0.0000
  0.260   55.1146    0.1947   55.1030    0.2237   55.1097    0.2220   55.1047    0.1840   55.1505    0.2297   55.1483    0.2326    0.0000    0.0000
  0.270   55.1433    0.1975   55.1316    0.2266   55.1384    0.2248   55.1334    0.1867   55.1793    0.2326   55.1770    0.2356    0.0000    0.0000
  0.280   55.1731    0.2002   55.1614    0.2294   55.1683    0.2277   55.1632    0.1895   55.2091    0.2356   55.2069    0.2386    0.0000    0.0000
  0.290   55.2041    0.2030   55.1923    0.2323   55.1992    0.2305   55.1941    0.1923   55.2401    0.2386   55.2379    0.2416    0.0000    0.0000
  0.300   55.2361    0.2057   55.2244    0.2352   55.2313    0.2334   55.2262    0.1951   55.2722    0.2416   55.2700    0.2446    0.0000    0.0000
  0.310   55.2693    0.2085   55.2575    0.2381   55.2644    0.2363   55.2594    0.1979   55.3055    0.2447   55.3032    0.2476    0.0000    0.0000
  0.320   55.3037    0.2113   55.2918    0.2410   55.2988    0.2393   55.2937    0.2007   55.3398    0.2477   55.3376    0.2507    0.0000    0.0000
  0.330   55.3391    0.2141   55.3272    0.2439   55.3342    0.2422   55.3291    0.2036   55.3754    0.2508   55.3731    0.2537    0.0000    0.0000
  0.340   55.3757    0.2170   55.3638    0.2469   55.3708    0.2452   55.3657    0.2064   55.4120    0.2539   55.4098    0.2568    0.0000    0.0000
  0.350   55.4135    0.2198   55.4015    0.2499   55.4086    0.2482   55.4035    0.2093   55.4498    0.2570   55.4476    0.2600    0.0000    0.0000
  0.360   55.4524    0.2227   55.4404    0.2529   55.4474    0.2512   55.4424    0.2122   55.4888    0.2602   55.4866    0.2631    0.0000    0.0000
  0.370   55.4924    0.2256   55.4804    0.2559   55.4875    0.2542   55.4824    0.2151   55.5289    0.2634   55.5267    0.2663    0.0000    0.0000
  0.380   55.5336    0.2285   55.5216    0.2590   55.5287    0.2572   55.5236    0.2181   55.5702    0.2665   55.5680    0.2695    0.0000    0.0000
  0.390   55.5760    0.2315   55.5639    0.2620   55.5711    0.2603   55.5660    0.2210   55.6126    0.2698   55.6104    0.2727    0.0000    0.0000
  0.400   55.6196    0.2344   55.6075    0.2651   55.6146    0.2634   55.6095    0.2240   55.6562    0.2730   55.6540    0.2759    0.0000    0.0000
  0.410   55.6643    0.2374   55.6522    0.2683   55.6593    0.2665   55.6543    0.2270   55.7010    0.2762   55.6988    0.2791    0.0000    0.0000
  0.420   55.7102    0.2404   55.6980    0.2714   55.7052    0.2697   55.7002    0.2300   55.7470    0.2795   55.7448    0.2824    0.0000    0.0000
  0.430   55.7573    0.2434   55.7451    0.2746   55.7523    0.2728   55.7473    0.2331   55.7942    0.2828   55.7920    0.2857    0.0000    0.0000
  0.440   55.8056    0.2465   55.7934    0.2777   55.8006    0.2760   55.7956    0.2361   55.8426    0.2862   55.8404    0.2891    0.0000    0.0000
  0.450   55.8551    0.2496   55.8428    0.2809   55.8501    0.2792   55.8450    0.2392   55.8922    0.2895   55.8900    0.2924    0.0000    0.0000
  0.460   55.9058    0.2526   55.8935    0.2842   55.9008    0.2825   55.8957    0.2423   55.9430    0.2929   55.9408    0.2958    0.0000    0.0000
  0.470   55.9578    0.2558   55.9454    0.2874   55.9527    0.2857   55.9477    0.2455   55.9950    0.2963   55.9928    0.2992    0.0000    0.0000
  0.480   56.0109    0.2589   55.9985    0.2907   56.0059    0.2890   56.0008    0.2486   56.0482    0.2997   56.0460    0.3026    0.0000    0.0000
  0.490   56.0653    0.2621   56.0528    0.2940   56.0602    0.2923   56.0552    0.2518   56.1027    0.3032   56.1005    0.3061    0.0000    0.0000
  0.500   56.1209    0.2653   56.1084    0.2974   56.1158    0.2957   56.1108    0.2550   56.1584    0.3067   56.1562    0.3096    0.0000    0.0000
  0.510   56.1778    0.2685   56.1652    0.3008   56.1727    0.2990   56.1676    0.2583   56.2153    0.3102   56.2131    0.3131    0.0000    0.0000
  0.520   56.2359    0.2717   56.2233    0.3042   56.2308    0.3024   56.2257    0.2615   56.2735    0.3138   56.2713    0.3166    0.0000    0.0000
  0.530   56.2952    0.2750   56.2826    0.3076   56.2901    0.3059   56.2851    0.2648   56.3330    0.3173   56.3308    0.3202    0.0000    0.0000
  0.540   56.3559    0.2783   56.3432    0.3110   56.3507    0.3093   56.3457    0.2681   56.3937    0.3210   56.3915    0.3238    0.0000    0.0000
  0.550   56.4178    0.2816   56.4050    0.3145   56.4126    0.3128   56.4076    0.2715   56.4557    0.3246   56.4536    0.3275    0.0000    0.0000
  0.560   56.4810    0.2849   56.4682    0.3180   56.4758    0.3163   56.4708    0.2748   56.5190    0.3283   56.5169    0.3311    0.0000    0.0000
  0.570   56.5454    0.2883   56.5326    0.3216   56.5403    0.3199   56.5352    0.2782   56.5836    0.3320   56.5814    0.3348    0.0000    0.0000
  0.580   56.6112    0.2917   56.5983    0.3252   56.6061    0.3234   56.6010    0.2816   56.6495    0.3357   56.6473    0.3386   -0.0000   -0.0000
  0.590   56.6783    0.2952   56.6654    0.3288   56.6731    0.3271   56.6681    0.2851   56.7167    0.3395   56.7146    0.3423   -0.0000   -0.0000
  0.600   56.7468    0.2986   56.7338    0.3324   56.7415    0.3307   56.7365    0.2886   56.7853    0.3433   56.7831    0.3461   -0.0000   -0.0000
  0.610   56.8165    0.3021   56.8035    0.3361   56.8113    0.3344   56.8062    0.2921   56.8551    0.3471   56.8530    0.3500   -0.0000   -0.0000
  0.620   56.8876    0.3057   56.8745    0.3398   56.8823    0.3381   56.8773    0.2956   56.9263    0.3510   56.9242    0.3539   -0.0000   -0.0000
  0.630   56.9600    0.3092   56.9469    0.3435   56.9548    0.3418   56.9497    0.2992   56.9989    0.3549   56.9967    0.3578   -0.0000   -0.0000
  0.640   57.0338    0.3128   57.0206    0.3473   57.0285    0.3456   57.0235    0.3028   57.0728    0.3589   57.0707    0.3617   -0.0000   -0.0000
  0.650   57.1090    0.3164   57.0957    0.3511   57.1037    0.3494   57.0987    0.3065   57.1481    0.3628   57.1459    0.3657   -0.0000   -0.0000
  0.660   57.1855    0.3201   57.1722    0.3550   57.1802    0.3533   57.1752    0.3102   57.2248    0.3669   57.2226    0.3697   -0.0000   -0.0000
  0.670   57.2635    0.3238   57.2501    0.3589   57.2581    0.3572   57.2531    0.3139   57.3029    0.3709   57.3007    0.3738   -0.0000   -0.0000
  0.680   57.3428    0.3275   57.3294    0.3628   57.3374    0.3611   57.3324    0.3176   57.3823    0.3750   57.3802    0.3779   -0.0000   -0.0000
  0.690   57.4235    0.3313   57.4101    0.3667   57.4182    0.3650   57.4132    0.3214   57.4632    0.3792   57.4611    0.3820   -0.0000   -0.0000
  0.700   57.5057    0.3351   57.4922    0.3708   57.5003    0.3691   57.4953    0.3252   57.5455    0.3834   57.5434    0.3862   -0.0000   -0.0000
  0.710   57.5893    0.3390   57.5757    0.3748   57.5839    0.3731   57.5789    0.3291   57.6293    0.3876   57.6271    0.3904   -0.0000   -0.0000
  0.720   57.6744    0.3428   57.6607    0.3789   57.6690    0.3772   57.6640    0.3330   57.7145    0.3919   57.7124    0.3947   -0.0000   -0.0000
  0.730   57.7609    0.3468   57.7472    0.3830   57.7555    0.3813   57.7505    0.3369   57.8012    0.3962   57.7990    0.3990   -0.0000   -0.0000
  0.740   57.8489    0.3507   57.8351    0.3872   57.8434    0.3855   57.8385    0.3409   57.8893    0.4005   57.8872    0.4034   -0.0000   -0.0000
  0.750   57.9384    0.3547   57.9246    0.3914   57.9329    0.3897   57.9280    0.3449   57.9790    0.4049   57.9768    0.4078   -0.0000   -0.0000
  0.760   58.0294    0.3588   58.0155    0.3956   58.0239    0.3939   58.0189    0.3490   58.0701    0.4094   58.0680    0.4122   -0.0000   -0.0000
  0.770   58.1219    0.3628   58.1079    0.3999   58.1163    0.3982   58.1114    0.3531   58.1628    0.4139   58.1606    0.4167   -0.0000   -0.0000
  0.780   58.2159    0.3670   58.2019    0.4043   58.2103    0.4026   58.2054    0.3572   58.2570    0.4184   58.2548    0.4212   -0.0000   -0.0000
  0.790   58.3115    0.3711   58.2974    0.4087   58.3059    0.4070   58.3010    0.3614   58.3527    0.4230   58.3506    0.4258   -0.0000   -0.0000
  0.800   58.4086    0.3754   58.3945    0.4131   58.4030    0.4114   58.3981    0.3656   58.4500    0.4276   58.4479    0.4305   -0.0000   -0.0000
  0.810   58.5073    0.3796   58.4931    0.4176   58.5017    0.4159   58.4968    0.3699   58.5489    0.4323   58.5468    0.4351   -0.0000   -0.0000
  0.820   58.6076    0.3839   58.5933    0.4221   58.6019    0.4205   58.5970    0.3742   58.6494    0.4371   58.6472    0.4399   -0.0000   -0.0000
  0.830   58.7095    0.3883   58.6951    0.4267   58.7038    0.4250   58.6989    0.3786   58.7515    0.4418   58.7493    0.4447   -0.0000   -0.0000
  0.840   58.8130    0.3927   58.7985    0.4314   58.8073    0.4297   58.8024    0.3830   58.8551    0.4467   58.8530    0.4495   -0.0000   -0.0000
  0.850   58.9181    0.3971   58.9036    0.4361   58.9124    0.4344   58.9075    0.3875   58.9605    0.4516   58.9583    0.4544   -0.0000   -0.0000
  0.860   59.0249    0.4016   59.0103    0.4408   59.0191    0.4391   59.0143    0.3920   59.0675    0.4565   59.0653    0.4594   -0.0000   -0.0000
  0.870   59.1334    0.4062   59.1187    0.4456   59.1275    0.4439   59.1227    0.3965   59.1761    0.4616   59.1739    0.4644   -0.0000   -0.0000
  0.880   59.2435    0.4108   59.2288    0.4504   59.2376    0.4488   59.2329    0.4011   59.2864    0.4666   59.2843    0.4694   -0.0000   -0.0000
  0.890   59.3553    0.4154   59.3405    0.4554   59.3495    0.4537   59.3447    0.4058   59.3985    0.4718   59.3963    0.4746   -0.0000   -0.0000
  0.900   59.4689    0.4201   59.4540    0.4603   59.4630    0.4586   59.4582    0.4105   59.5123    0.4769   59.5101    0.4798   -0.0000   -0.0000
  0.910   59.5842    0.4249   59.5692    0.4653   59.5782    0.4637   59.5735    0.4153   59.6278    0.4822   59.6256    0.4850   -0.0000   -0.0000
  0.920   59.7012    0.4297   59.6862    0.4704   59.6953    0.4687   59.6905    0.4201   59.7450    0.4875   59.7429    0.4903   -0.0000   -0.0000
  0.930   59.8201    0.4346   59.8049    0.4756   59.8141    0.4739   59.8093    0.4250   59.8641    0.4929   59.8619    0.4957   -0.0000   -0.0000
  0.940   59.9407    0.4395   59.9255    0.4808   59.9346    0.4791   59.9300    0.4300   59.9849    0.4983   59.9828    0.5011   -0.0000   -0.0000
  0.950   60.0631    0.4445   60.0478    0.4860   60.0570    0.4844   60.0524    0.4350   60.1076    0.5038   60.1054    0.5066   -0.0000   -0.0000
  0.960   60.1874    0.4496   60.1720    0.4914   60.1813    0.4897   60.1766    0.4401   60.2321    0.5094   60.2299    0.5122   -0.0000   -0.0000
  0.970   60.3135    0.4547   60.2981    0.4968   60.3074    0.4951   60.3027    0.4452   60.3585    0.5150   60.3563    0.5178   -0.0000   -0.0000
  0.980   60.4415    0.4599   60.4260    0.5022   60.4353    0.5006   60.4307    0.4504   60.4867    0.5207   60.4845    0.5235   -0.0000   -0.0000
  0.990   60.5714    0.4651   60.5558    0.5078   60.5652    0.5061   60.5606    0.4557   60.6169    0.5265   60.6147    0.5293   -0.0000   -0.0000
  1.000   60.7032    0.4704   60.6875    0.5134   60.6970    0.5117   60.6924    0.4610   60.7489    0.5324   60.7468    0.5352   -0.0000   -0.0000
  1.010   60.8370    0.4758   60.8212    0.5190   60.8307    0.5174   60.8262    0.4664   60.8829    0.5383   60.8808    0.5411   -0.0000   -0.0000
  1.020   60.9727    0.4813   60.9568    0.5248   60.9664    0.5231   60.9619    0.4718   61.0189    0.5443   61.0168    0.5471   -0.0000   -0.0000
  1.030   61.1104    0.4868   61.0944    0.5306   61.1041    0.5289   61.0996    0.4774   61.1569    0.5504   61.1547    0.5532   -0.0000   -0.0000
  1.040   61.2502    0.4924   61.2341    0.5365   61.2438    0.5348   61.2393    0.4830   61.2969    0.5565   61.2947    0.5593   -0.0000   -0.0000
  1.050   61.3919    0.4980   61.3757    0.5425   61.3855    0.5408   61.3810    0.4886   61.4390    0.5628   61.4368    0.5656   -0.0000   -0.0000
  1.060   61.5358    0.5037   61.5195    0.5485   61.5293    0.5468   61.5249    0.4944   61.5831    0.5691   61.5809    0.5719   -0.0000   -0.0000
  1.070   61.6817    0.5096   61.6653    0.5546   61.6751    0.5530   61.6708    0.5002   61.7293    0.5755   61.7271    0.5783   -0.0000   -0.0000
  1.080   61.8297    0.5154   61.8132    0.5609   61.8231    0.5592   61.8188    0.5061   61.8776    0.5820   61.8754    0.5848   -0.0000   -0.0000
  1.090   61.9799    0.5214   61.9633    0.5671   61.9733    0.5655   61.9690    0.5121   62.0281    0.5885   62.0259    0.5913   -0.0000   -0.0000
  1.100   62.1322    0.5274   62.1156    0.5735   62.1256    0.5718   62.1213    0.5181   62.1807    0.5952   62.1785    0.5980   -0.0000   -0.0000
  1.110   62.2868    0.5336   62.2700    0.5800   62.2801    0.5783   62.2758    0.5243   62.3356    0.6020   62.3334    0.6048   -0.0000   -0.0000
  1.120   62.4436    0.5398   62.4267    0.5865   62.4368    0.5849   62.4326    0.5305   62.4926    0.6088   62.4905    0.6116   -0.0000   -0.0000
  1.130   62.6026    0.5461   62.5856    0.5932   62.5958    0.5915   62.5916    0.5368   62.6520    0.6157   62.6498    0.6185   -0.0000   -0.0000
  1.140   62.7639    0.5524   62.7468    0.5999   62.7570    0.5982   62.7529    0.5432   62.8136    0.6228   62.8114    0.6256   -0.0000   -0.0000
  1.150   62.9275    0.5589   62.9103    0.6067   62.9206    0.6051   62.9165    0.5497   62.9776    0.6299   62.9754    0.6327   -0.0000   -0.0000
  1.160   63.0935    0.5655   63.0761    0.6137   63.0865    0.6120   63.0824    0.5563   63.1439    0.6371   63.1417    0.6399   -0.0000   -0.0000
  1.170   63.2618    0.5721   63.2444    0.6207   63.2548    0.6190   63.2508    0.5629   63.3125    0.6445   63.3104    0.6473   -0.0000   -0.0000
  1.180   63.4326    0.5789   63.4150    0.6278   63.4255    0.6261   63.4215    0.5697   63.4836    0.6519   63.4815    0.6547   -0.0000   -0.0000
  1.190   63.6058    0.5857   63.5881    0.6350   63.5987    0.6333   63.5947    0.5765   63.6572    0.6595   63.6550    0.6623   -0.0000   -0.0000
  1.200   63.7815    0.5926   63.7637    0.6424   63.7743    0.6407   63.7704    0.5835   63.8332    0.6671   63.8311    0.6699   -0.0000   -0.0000
  1.210   63.9597    0.5997   63.9417    0.6498   63.9524    0.6481   63.9486    0.5906   64.0118    0.6749   64.0096    0.6777   -0.0000   -0.0000
  1.220   64.1404    0.6068   64.1223    0.6573   64.1331    0.6556   64.1293    0.5977   64.1929    0.6828   64.1907    0.6856   -0.0000   -0.0000
  1.230   64.3238    0.6141   64.3056    0.6650   64.3164    0.6633   64.3126    0.6050   64.3766    0.6908   64.3744    0.6936   -0.0000   -0.0000
  1.240   64.5097    0.6214   64.4914    0.6727   64.5023    0.6711   64.4986    0.6124   64.5629    0.6989   64.5608    0.7017   -0.0000   -0.0000
  1.250   64.6983    0.6289   64.6799    0.6806   64.6908    0.6789   64.6872    0.6199   64.7520    0.7071   64.7498    0.7099   -0.0000   -0.0000
  1.260   64.8896    0.6365   64.8710    0.6886   64.8821    0.6869   64.8785    0.6275   64.9437    0.7155   64.9415    0.7183   -0.0000   -0.0000
  1.270   65.0837    0.6442   65.0650    0.6967   65.0761    0.6951   65.0725    0.6352   65.1381    0.7240   65.1359    0.7268   -0.0000   -0.0000
  1.280   65.2805    0.6520   65.2617    0.7050   65.2728    0.7033   65.2693    0.6430   65.3354    0.7326   65.3332    0.7354   -0.0000   -0.0000
