# Macroscopic dielectric function obtained with the BS equation.
#  RPA L0 with KS energies and KS wavefunctions     LOCAL FIELD EFFECTS INCLUDED
# RESONANT-ONLY calculation
# Coulomb term constructed with full W(G1,G2)
# Scissor operator energy =  0.8000 [eV]
# nstates included in the diagonalization = 96
# npweps  = 113
# npwwfn  = 283
# nbands  = 8
# loband  = 2
# nkibz   = 3
# nkbz    = 8
# Lorentzian broadening =  0.0000 [eV]
# List of q-points for the optical limit:
# q =  0.938821, 0.000000, 0.000000, [Reduced coords] 
# q =  0.000000, 0.938821, 0.000000, [Reduced coords] 
# q =  0.000000, 0.000000, 0.938821, [Reduced coords] 
# q =  0.000000, 0.813043, 0.813043, [Reduced coords] 
# q =  0.813043, 0.000000, 0.813043, [Reduced coords] 
# q =  0.813043, 0.813043, 0.000000, [Reduced coords] 
# omega [eV]    RE(eps(q=1)) IM(eps(q=1) RE(eps(q=2) ) ... DOS   IDOS
  0.000   55.7088    0.2854   55.6632    0.3545   55.6708    0.3535   55.6840    0.2675   55.7694    0.3415   55.7655    0.3499   -0.0000   -0.0000
  0.010   55.7093    0.2923   55.6637    0.3616   55.6714    0.3607   55.6846    0.2745   55.7699    0.3489   55.7661    0.3572   -0.0000   -0.0000
  0.020   55.7110    0.2993   55.6653    0.3688   55.6730    0.3678   55.6863    0.2815   55.7715    0.3562   55.7677    0.3645   -0.0000   -0.0000
  0.030   55.7138    0.3063   55.6681    0.3760   55.6758    0.3750   55.6891    0.2886   55.7743    0.3636   55.7705    0.3719   -0.0000   -0.0000
  0.040   55.7178    0.3133   55.6720    0.3832   55.6797    0.3822   55.6931    0.2957   55.7782    0.3710   55.7744    0.3793   -0.0000   -0.0000
  0.050   55.7228    0.3204   55.6770    0.3904   55.6847    0.3894   55.6981    0.3028   55.7832    0.3784   55.7794    0.3867   -0.0000   -0.0000
  0.060   55.7290    0.3274   55.6831    0.3977   55.6909    0.3966   55.7043    0.3099   55.7894    0.3858   55.7856    0.3941   -0.0000   -0.0000
  0.070   55.7364    0.3345   55.6904    0.4049   55.6981    0.4039   55.7116    0.3170   55.7967    0.3933   55.7929    0.4015   -0.0000   -0.0000
  0.080   55.7448    0.3416   55.6988    0.4122   55.7065    0.4112   55.7201    0.3242   55.8051    0.4008   55.8013    0.4090   -0.0000   -0.0000
  0.090   55.7544    0.3487   55.7083    0.4196   55.7161    0.4185   55.7297    0.3314   55.8147    0.4083   55.8109    0.4165   -0.0000   -0.0000
  0.100   55.7651    0.3558   55.7189    0.4269   55.7267    0.4259   55.7404    0.3386   55.8254    0.4158   55.8216    0.4241   -0.0000   -0.0000
  0.110   55.7770    0.3630   55.7307    0.4343   55.7385    0.4332   55.7522    0.3458   55.8372    0.4234   55.8334    0.4316   -0.0000   -0.0000
  0.120   55.7900    0.3702   55.7436    0.4417   55.7514    0.4406   55.7652    0.3531   55.8502    0.4310   55.8464    0.4392   -0.0000   -0.0000
  0.130   55.8041    0.3774   55.7576    0.4492   55.7655    0.4481   55.7793    0.3604   55.8643    0.4386   55.8605    0.4468   -0.0000   -0.0000
  0.140   55.8193    0.3847   55.7728    0.4566   55.7807    0.4555   55.7946    0.3677   55.8796    0.4463   55.8758    0.4545   -0.0000   -0.0000
  0.150   55.8357    0.3919   55.7891    0.4642   55.7970    0.4630   55.8110    0.3750   55.8960    0.4540   55.8922    0.4622   -0.0000   -0.0000
  0.160   55.8533    0.3992   55.8065    0.4717   55.8145    0.4706   55.8285    0.3824   55.9135    0.4617   55.9097    0.4699   -0.0000   -0.0000
  0.170   55.8719    0.4066   55.8251    0.4793   55.8331    0.4781   55.8472    0.3898   55.9322    0.4695   55.9284    0.4776   -0.0000   -0.0000
  0.180   55.8918    0.4139   55.8448    0.4869   55.8528    0.4857   55.8670    0.3972   55.9521    0.4773   55.9483    0.4854   -0.0000   -0.0000
  0.190   55.9128    0.4213   55.8657    0.4945   55.8737    0.4934   55.8879    0.4047   55.9731    0.4851   55.9692    0.4932   -0.0000   -0.0000
  0.200   55.9349    0.4288   55.8877    0.5022   55.8957    0.5010   55.9101    0.4121   55.9952    0.4930   55.9914    0.5011   -0.0000   -0.0000
  0.210   55.9582    0.4362   55.9109    0.5100   55.9189    0.5088   55.9333    0.4197   56.0185    0.5009   56.0147    0.5090   -0.0000   -0.0000
  0.220   55.9826    0.4437   55.9352    0.5177   55.9433    0.5165   55.9578    0.4272   56.0430    0.5088   56.0392    0.5169   -0.0000   -0.0000
  0.230   56.0082    0.4513   55.9607    0.5255   55.9688    0.5243   55.9834    0.4348   56.0686    0.5168   56.0648    0.5249   -0.0000   -0.0000
  0.240   56.0350    0.4589   55.9874    0.5334   55.9955    0.5321   56.0101    0.4425   56.0954    0.5249   56.0916    0.5329   -0.0000   -0.0000
  0.250   56.0629    0.4665   56.0152    0.5413   56.0233    0.5400   56.0380    0.4501   56.1234    0.5329   56.1196    0.5410   -0.0000   -0.0000
  0.260   56.0920    0.4741   56.0442    0.5492   56.0523    0.5479   56.0671    0.4578   56.1525    0.5410   56.1487    0.5491   -0.0000   -0.0000
  0.270   56.1223    0.4818   56.0743    0.5572   56.0825    0.5559   56.0974    0.4656   56.1828    0.5492   56.1790    0.5573   -0.0000   -0.0000
  0.280   56.1537    0.4896   56.1057    0.5652   56.1139    0.5639   56.1288    0.4734   56.2143    0.5574   56.2105    0.5655   -0.0000   -0.0000
  0.290   56.1864    0.4973   56.1382    0.5733   56.1464    0.5720   56.1615    0.4812   56.2470    0.5657   56.2432    0.5737   -0.0000   -0.0000
  0.300   56.2202    0.5052   56.1719    0.5814   56.1801    0.5801   56.1953    0.4891   56.2809    0.5740   56.2771    0.5820   -0.0000   -0.0000
  0.310   56.2552    0.5130   56.2068    0.5895   56.2150    0.5882   56.2303    0.4970   56.3160    0.5823   56.3122    0.5904   -0.0000   -0.0000
  0.320   56.2914    0.5209   56.2428    0.5978   56.2511    0.5964   56.2665    0.5050   56.3523    0.5907   56.3485    0.5987   -0.0000   -0.0000
  0.330   56.3289    0.5289   56.2801    0.6060   56.2884    0.6047   56.3039    0.5130   56.3897    0.5992   56.3859    0.6072   -0.0000   -0.0000
  0.340   56.3675    0.5369   56.3186    0.6143   56.3269    0.6130   56.3425    0.5211   56.4284    0.6077   56.4246    0.6157   -0.0000   -0.0000
  0.350   56.4073    0.5450   56.3583    0.6227   56.3666    0.6214   56.3823    0.5292   56.4683    0.6162   56.4645    0.6242   -0.0000   -0.0000
  0.360   56.4484    0.5531   56.3992    0.6312   56.4076    0.6298   56.4233    0.5373   56.5095    0.6249   56.5057    0.6329   -0.0000   -0.0000
  0.370   56.4906    0.5613   56.4413    0.6396   56.4497    0.6383   56.4656    0.5456   56.5518    0.6335   56.5480    0.6415   -0.0000   -0.0000
  0.380   56.5341    0.5695   56.4847    0.6482   56.4931    0.6468   56.5091    0.5538   56.5954    0.6423   56.5916    0.6503   -0.0000   -0.0000
  0.390   56.5789    0.5777   56.5292    0.6568   56.5377    0.6554   56.5538    0.5621   56.6402    0.6511   56.6364    0.6590   -0.0000   -0.0000
  0.400   56.6248    0.5861   56.5750    0.6654   56.5835    0.6640   56.5997    0.5705   56.6863    0.6599   56.6825    0.6679   -0.0000   -0.0000
  0.410   56.6721    0.5944   56.6221    0.6742   56.6306    0.6727   56.6469    0.5789   56.7336    0.6688   56.7298    0.6768   -0.0000   -0.0000
  0.420   56.7205    0.6029   56.6704    0.6830   56.6789    0.6815   56.6954    0.5874   56.7822    0.6778   56.7783    0.6858   -0.0000   -0.0000
  0.430   56.7703    0.6114   56.7200    0.6918   56.7285    0.6904   56.7451    0.5960   56.8320    0.6868   56.8282    0.6948   -0.0000   -0.0000
  0.440   56.8213    0.6199   56.7708    0.7007   56.7794    0.6993   56.7961    0.6046   56.8831    0.6959   56.8793    0.7039   -0.0000   -0.0000
  0.450   56.8735    0.6286   56.8229    0.7097   56.8315    0.7082   56.8483    0.6133   56.9355    0.7051   56.9316    0.7131   -0.0000   -0.0000
  0.460   56.9271    0.6373   56.8762    0.7188   56.8849    0.7173   56.9018    0.6220   56.9891    0.7144   56.9853    0.7223   -0.0000   -0.0000
  0.470   56.9819    0.6460   56.9309    0.7279   56.9396    0.7264   56.9566    0.6308   57.0441    0.7237   57.0402    0.7316   -0.0000   -0.0000
  0.480   57.0380    0.6548   56.9868    0.7371   56.9955    0.7356   57.0127    0.6396   57.1003    0.7331   57.0965    0.7410   -0.0000   -0.0000
  0.490   57.0955    0.6637   57.0441    0.7463   57.0528    0.7448   57.0701    0.6486   57.1579    0.7425   57.1540    0.7505   -0.0000   -0.0000
  0.500   57.1542    0.6727   57.1026    0.7557   57.1114    0.7541   57.1288    0.6576   57.2168    0.7521   57.2129    0.7600   -0.0000   -0.0000
  0.510   57.2142    0.6817   57.1625    0.7651   57.1713    0.7635   57.1889    0.6666   57.2769    0.7617   57.2731    0.7696   -0.0000   -0.0000
  0.520   57.2756    0.6908   57.2236    0.7746   57.2325    0.7730   57.2502    0.6758   57.3385    0.7714   57.3346    0.7793   -0.0000   -0.0000
  0.530   57.3384    0.6999   57.2862    0.7841   57.2950    0.7826   57.3129    0.6850   57.4013    0.7811   57.3975    0.7890   -0.0000   -0.0000
  0.540   57.4024    0.7092   57.3500    0.7938   57.3589    0.7922   57.3770    0.6943   57.4655    0.7910   57.4617    0.7989   -0.0000   -0.0000
  0.550   57.4678    0.7185   57.4152    0.8035   57.4241    0.8019   57.4424    0.7036   57.5311    0.8009   57.5272    0.8088   -0.0000   -0.0000
  0.560   57.5346    0.7279   57.4818    0.8133   57.4907    0.8117   57.5091    0.7131   57.5980    0.8109   57.5942    0.8188   -0.0000   -0.0000
  0.570   57.6028    0.7374   57.5497    0.8232   57.5587    0.8216   57.5772    0.7226   57.6663    0.8210   57.6625    0.8289   -0.0000   -0.0000
  0.580   57.6723    0.7469   57.6190    0.8332   57.6280    0.8316   57.6467    0.7322   57.7360    0.8312   57.7322    0.8391   -0.0000   -0.0000
  0.590   57.7432    0.7566   57.6897    0.8433   57.6987    0.8416   57.7176    0.7419   57.8071    0.8415   57.8032    0.8494   -0.0000   -0.0000
  0.600   57.8155    0.7663   57.7618    0.8534   57.7709    0.8518   57.7899    0.7516   57.8796    0.8519   57.8757    0.8598   -0.0000   -0.0000
  0.610   57.8893    0.7761   57.8353    0.8637   57.8444    0.8620   57.8636    0.7615   57.9535    0.8623   57.9496    0.8702   -0.0000   -0.0000
  0.620   57.9644    0.7860   57.9102    0.8740   57.9193    0.8724   57.9387    0.7714   58.0289    0.8729   58.0250    0.8808   -0.0000   -0.0000
  0.630   58.0410    0.7960   57.9865    0.8845   57.9957    0.8828   58.0153    0.7814   58.1056    0.8836   58.1017    0.8914   -0.0000   -0.0000
  0.640   58.1190    0.8061   58.0643    0.8950   58.0735    0.8933   58.0933    0.7916   58.1839    0.8943   58.1800    0.9022   -0.0000   -0.0000
  0.650   58.1985    0.8162   58.1436    0.9057   58.1528    0.9040   58.1727    0.8018   58.2635    0.9052   58.2596    0.9130   -0.0000   -0.0000
  0.660   58.2795    0.8265   58.2243    0.9164   58.2335    0.9147   58.2537    0.8121   58.3447    0.9161   58.3408    0.9240   -0.0000   -0.0000
  0.670   58.3619    0.8369   58.3064    0.9273   58.3158    0.9255   58.3361    0.8225   58.4273    0.9272   58.4234    0.9350   -0.0000   -0.0000
  0.680   58.4458    0.8473   58.3901    0.9382   58.3995    0.9365   58.4200    0.8330   58.5115    0.9384   58.5076    0.9462   -0.0000   -0.0000
  0.690   58.5313    0.8579   58.4753    0.9493   58.4847    0.9475   58.5054    0.8436   58.5971    0.9496   58.5932    0.9575   -0.0000   -0.0000
  0.700   58.6182    0.8685   58.5619    0.9604   58.5714    0.9587   58.5923    0.8543   58.6843    0.9610   58.6804    0.9689   -0.0000   -0.0000
  0.710   58.7067    0.8793   58.6501    0.9717   58.6596    0.9699   58.6807    0.8651   58.7730    0.9725   58.7691    0.9804   -0.0000   -0.0000
  0.720   58.7967    0.8902   58.7399    0.9831   58.7494    0.9813   58.7707    0.8760   58.8632    0.9842   58.8593    0.9920   -0.0000   -0.0000
  0.730   58.8883    0.9012   58.8312    0.9946   58.8407    0.9928   58.8622    0.8871   58.9550    0.9959   58.9511    1.0037   -0.0000   -0.0000
  0.740   58.9814    0.9123   58.9240    1.0062   58.9336    1.0044   58.9554    0.8982   59.0484    1.0078   59.0445    1.0156   -0.0000   -0.0000
  0.750   59.0762    0.9235   59.0185    1.0180   59.0281    1.0162   59.0500    0.9094   59.1434    1.0197   59.1395    1.0276   -0.0000   -0.0000
  0.760   59.1725    0.9348   59.1145    1.0298   59.1241    1.0280   59.1463    0.9208   59.2400    1.0319   59.2360    1.0397   -0.0000   -0.0000
  0.770   59.2704    0.9463   59.2121    1.0418   59.2218    1.0400   59.2443    0.9323   59.3382    1.0441   59.3342    1.0519   -0.0000   -0.0000
  0.780   59.3700    0.9578   59.3114    1.0540   59.3211    1.0521   59.3438    0.9439   59.4380    1.0565   59.4341    1.0643   -0.0000   -0.0000
  0.790   59.4712    0.9695   59.4123    1.0662   59.4221    1.0644   59.4450    0.9556   59.5395    1.0689   59.5355    1.0768   -0.0000   -0.0000
  0.800   59.5741    0.9813   59.5149    1.0786   59.5247    1.0767   59.5478    0.9675   59.6426    1.0816   59.6387    1.0894   -0.0000   -0.0000
  0.810   59.6787    0.9933   59.6191    1.0911   59.6290    1.0893   59.6523    0.9795   59.7475    1.0943   59.7435    1.1022   -0.0000   -0.0000
  0.820   59.7849    1.0053   59.7250    1.1038   59.7349    1.1019   59.7586    0.9916   59.8540    1.1073   59.8501    1.1151   -0.0000   -0.0000
  0.830   59.8929    1.0175   59.8327    1.1166   59.8426    1.1147   59.8665    1.0038   59.9623    1.1203   59.9583    1.1281   -0.0000   -0.0000
  0.840   60.0026    1.0299   59.9420    1.1295   59.9520    1.1276   59.9761    1.0162   60.0723    1.1335   60.0683    1.1413   -0.0000   -0.0000
  0.850   60.1140    1.0424   60.0531    1.1426   60.0631    1.1407   60.0875    1.0287   60.1840    1.1469   60.1800    1.1547   -0.0000   -0.0000
  0.860   60.2272    1.0550   60.1660    1.1559   60.1760    1.1539   60.2007    1.0414   60.2975    1.1604   60.2935    1.1682   -0.0000   -0.0000
  0.870   60.3422    1.0678   60.2806    1.1692   60.2907    1.1673   60.3157    1.0542   60.4128    1.1740   60.4088    1.1818   -0.0000   -0.0000
  0.880   60.4590    1.0807   60.3970    1.1828   60.4072    1.1808   60.4324    1.0671   60.5299    1.1878   60.5259    1.1956   -0.0000   -0.0000
  0.890   60.5776    1.0937   60.5152    1.1965   60.5254    1.1945   60.5510    1.0802   60.6488    1.2018   60.6448    1.2096   -0.0000   -0.0000
  0.900   60.6981    1.1069   60.6353    1.2104   60.6456    1.2084   60.6714    1.0935   60.7696    1.2159   60.7656    1.2237   -0.0000   -0.0000
  0.910   60.8204    1.1203   60.7572    1.2244   60.7675    1.2224   60.7936    1.1069   60.8923    1.2303   60.8882    1.2380   -0.0000   -0.0000
  0.920   60.9446    1.1338   60.8810    1.2386   60.8914    1.2366   60.9178    1.1205   61.0168    1.2447   61.0128    1.2525   -0.0000   -0.0000
  0.930   61.0707    1.1475   61.0067    1.2530   61.0171    1.2510   61.0438    1.1342   61.1432    1.2594   61.1392    1.2672   -0.0000   -0.0000
  0.940   61.1987    1.1614   61.1344    1.2675   61.1448    1.2655   61.1718    1.1481   61.2716    1.2742   61.2676    1.2820   -0.0000   -0.0000
  0.950   61.3286    1.1754   61.2639    1.2822   61.2744    1.2802   61.3017    1.1622   61.4019    1.2892   61.3979    1.2970   -0.0000   -0.0000
  0.960   61.4606    1.1896   61.3954    1.2971   61.4060    1.2951   61.4336    1.1764   61.5342    1.3044   61.5302    1.3122   -0.0000   -0.0000
  0.970   61.5945    1.2040   61.5289    1.3122   61.5395    1.3102   61.5675    1.1908   61.6685    1.3198   61.6645    1.3276   -0.0000   -0.0000
  0.980   61.7304    1.2185   61.6644    1.3275   61.6751    1.3255   61.7034    1.2054   61.8048    1.3354   61.8008    1.3432   -0.0000   -0.0000
  0.990   61.8684    1.2333   61.8020    1.3430   61.8127    1.3409   61.8413    1.2202   61.9432    1.3512   61.9391    1.3589   -0.0000   -0.0000
  1.000   62.0084    1.2482   61.9416    1.3587   61.9523    1.3566   61.9813    1.2352   62.0836    1.3672   62.0796    1.3749   -0.0000   -0.0000
  1.010   62.1506    1.2633   62.0833    1.3745   62.0940    1.3724   62.1234    1.2503   62.2262    1.3833   62.2221    1.3911   -0.0000   -0.0000
  1.020   62.2948    1.2786   62.2270    1.3906   62.2379    1.3885   62.2676    1.2657   62.3708    1.3997   62.3667    1.4075   -0.0000   -0.0000
  1.030   62.4412    1.2941   62.3730    1.4069   62.3838    1.4048   62.4139    1.2812   62.5176    1.4164   62.5135    1.4241   -0.0000   -0.0000
  1.040   62.5897    1.3098   62.5210    1.4234   62.5320    1.4213   62.5624    1.2970   62.6666    1.4332   62.6625    1.4409   -0.0000   -0.0000
  1.050   62.7405    1.3258   62.6713    1.4401   62.6823    1.4380   62.7131    1.3130   62.8177    1.4502   62.8137    1.4580   -0.0000   -0.0000
  1.060   62.8934    1.3419   62.8238    1.4571   62.8348    1.4549   62.8660    1.3291   62.9711    1.4675   62.9671    1.4753   -0.0000   -0.0000
  1.070   63.0486    1.3582   62.9785    1.4742   62.9896    1.4721   63.0212    1.3455   63.1268    1.4850   63.1227    1.4928   -0.0000   -0.0000
  1.080   63.2061    1.3748   63.1355    1.4916   63.1466    1.4895   63.1787    1.3622   63.2847    1.5028   63.2806    1.5105   -0.0000   -0.0000
  1.090   63.3659    1.3916   63.2947    1.5093   63.3059    1.5071   63.3384    1.3790   63.4450    1.5208   63.4409    1.5285   -0.0000   -0.0000
  1.100   63.5280    1.4086   63.4564    1.5272   63.4676    1.5250   63.5005    1.3961   63.6076    1.5390   63.6035    1.5467   -0.0000   -0.0000
  1.110   63.6925    1.4259   63.6203    1.5453   63.6316    1.5431   63.6650    1.4134   63.7726    1.5575   63.7685    1.5652   -0.0000   -0.0000
  1.120   63.8594    1.4434   63.7867    1.5637   63.7981    1.5615   63.8318    1.4309   63.9400    1.5762   63.9359    1.5840   -0.0000   -0.0000
  1.130   64.0288    1.4611   63.9555    1.5823   63.9669    1.5801   64.0011    1.4487   64.1098    1.5952   64.1057    1.6030   -0.0000   -0.0000
  1.140   64.2006    1.4791   64.1268    1.6012   64.1382    1.5990   64.1729    1.4668   64.2822    1.6145   64.2780    1.6223   -0.0000   -0.0000
  1.150   64.3749    1.4974   64.3005    1.6204   64.3120    1.6182   64.3472    1.4851   64.4570    1.6341   64.4529    1.6418   -0.0000   -0.0000
  1.160   64.5517    1.5159   64.4768    1.6398   64.4884    1.6376   64.5240    1.5037   64.6344    1.6539   64.6302    1.6616   -0.0000   -0.0000
  1.170   64.7312    1.5347   64.6556    1.6596   64.6673    1.6573   64.7033    1.5225   64.8143    1.6741   64.8102    1.6818   -0.0000   -0.0000
  1.180   64.9132    1.5537   64.8370    1.6796   64.8488    1.6773   64.8853    1.5416   64.9969    1.6945   64.9928    1.7022   -0.0000   -0.0000
  1.190   65.0978    1.5731   65.0211    1.6999   65.0329    1.6976   65.0700    1.5610   65.1821    1.7152   65.1780    1.7229   -0.0000   -0.0000
  1.200   65.2852    1.5927   65.2079    1.7205   65.2197    1.7182   65.2573    1.5807   65.3701    1.7362   65.3659    1.7439   -0.0000   -0.0000
  1.210   65.4753    1.6126   65.3973    1.7414   65.4092    1.7391   65.4473    1.6007   65.5607    1.7576   65.5566    1.7653   -0.0000   -0.0000
  1.220   65.6681    1.6328   65.5895    1.7627   65.6015    1.7604   65.6401    1.6209   65.7541    1.7792   65.7500    1.7869   -0.0000   -0.0000
  1.230   65.8638    1.6534   65.7845    1.7842   65.7966    1.7819   65.8357    1.6415   65.9504    1.8012   65.9462    1.8089   -0.0000   -0.0000
  1.240   66.0622    1.6742   65.9824    1.8061   65.9945    1.8038   66.0342    1.6624   66.1495    1.8235   66.1453    1.8312   -0.0000   -0.0000
  1.250   66.2636    1.6954   66.1831    1.8283   66.1952    1.8260   66.2355    1.6836   66.3515    1.8462   66.3473    1.8539   -0.0000   -0.0000
  1.260   66.4679    1.7168   66.3867    1.8509   66.3989    1.8486   66.4398    1.7052   66.5564    1.8692   66.5523    1.8769   -0.0000   -0.0000
  1.270   66.6752    1.7387   66.5933    1.8738   66.6056    1.8715   66.6470    1.7271   66.7644    1.8926   66.7602    1.9003   -0.0000   -0.0000
  1.280   66.8855    1.7608   66.8029    1.8971   66.8153    1.8947   66.8573    1.7493   66.9753    1.9164   66.9711    1.9240   -0.0000   -0.0000
