# Macroscopic dielectric function obtained with the BS equation.
#  RPA L0 with KS energies and KS wavefunctions     LOCAL FIELD EFFECTS INCLUDED
# RESONANT-ONLY calculation
# Coulomb term constructed with full W(G1,G2)
# Scissor operator energy =  0.8000 [eV]
# Tolerance = -0.0010 0.0000
# npweps  = 113
# npwwfn  = 283
# nbands  = 8
# loband  = 2
# nkibz   = 3
# nkbz    = 8
# Lorentzian broadening =  0.0001 [eV]
# List of q-points for the optical limit:
# q =  0.938821, 0.000000, 0.000000, [Reduced coords] 
# q =  0.000000, 0.938821, 0.000000, [Reduced coords] 
# q =  0.000000, 0.000000, 0.938821, [Reduced coords] 
# q =  0.000000, 0.813043, 0.813043, [Reduced coords] 
# q =  0.813043, 0.000000, 0.813043, [Reduced coords] 
# q =  0.813043, 0.813043, 0.000000, [Reduced coords] 
# omega [eV]    RE(eps(q=1)) IM(eps(q=1) RE(eps(q=2) ) ... 
  0.000   55.7183    0.0000   55.6640    0.0000   55.6754    0.0000   55.6940    0.0000   55.7720    0.0000   55.7677    0.0000
  0.010   55.7189    0.0087   55.6646    0.0093   55.6759    0.0093   55.6945    0.0087   55.7725    0.0094   55.7682    0.0094
  0.020   55.7206    0.0174   55.6663    0.0186   55.6776    0.0185   55.6962    0.0174   55.7742    0.0188   55.7699    0.0188
  0.030   55.7234    0.0261   55.6691    0.0278   55.6804    0.0278   55.6990    0.0260   55.7770    0.0282   55.7727    0.0283
  0.040   55.7273    0.0348   55.6730    0.0371   55.6843    0.0371   55.7029    0.0347   55.7810    0.0376   55.7767    0.0377
  0.050   55.7324    0.0435   55.6781    0.0464   55.6894    0.0463   55.7080    0.0434   55.7861    0.0470   55.7818    0.0471
  0.060   55.7386    0.0522   55.6843    0.0557   55.6956    0.0556   55.7142    0.0521   55.7923    0.0564   55.7880    0.0565
  0.070   55.7459    0.0610   55.6916    0.0650   55.7029    0.0649   55.7215    0.0608   55.7996    0.0659   55.7953    0.0660
  0.080   55.7544    0.0697   55.7000    0.0743   55.7113    0.0742   55.7300    0.0695   55.8081    0.0753   55.8038    0.0754
  0.090   55.7639    0.0784   55.7095    0.0836   55.7209    0.0835   55.7395    0.0782   55.8177    0.0847   55.8134    0.0849
  0.100   55.7746    0.0872   55.7202    0.0929   55.7315    0.0928   55.7502    0.0870   55.8284    0.0942   55.8241    0.0944
  0.110   55.7865    0.0959   55.7320    0.1023   55.7433    0.1021   55.7621    0.0957   55.8403    0.1036   55.8360    0.1038
  0.120   55.7995    0.1047   55.7450    0.1116   55.7563    0.1115   55.7750    0.1044   55.8533    0.1131   55.8490    0.1133
  0.130   55.8136    0.1135   55.7590    0.1210   55.7704    0.1208   55.7891    0.1132   55.8674    0.1226   55.8631    0.1228
  0.140   55.8288    0.1223   55.7742    0.1304   55.7856    0.1302   55.8044    0.1220   55.8827    0.1321   55.8784    0.1324
  0.150   55.8452    0.1311   55.7906    0.1398   55.8019    0.1396   55.8208    0.1308   55.8992    0.1416   55.8949    0.1419
  0.160   55.8627    0.1400   55.8081    0.1492   55.8194    0.1490   55.8383    0.1396   55.9167    0.1512   55.9124    0.1515
  0.170   55.8814    0.1488   55.8267    0.1586   55.8380    0.1584   55.8569    0.1484   55.9355    0.1607   55.9312    0.1610
  0.180   55.9012    0.1577   55.8465    0.1680   55.8578    0.1678   55.8768    0.1572   55.9553    0.1703   55.9510    0.1706
  0.190   55.9222    0.1666   55.8674    0.1775   55.8787    0.1773   55.8977    0.1661   55.9764    0.1799   55.9720    0.1802
  0.200   55.9443    0.1755   55.8894    0.1870   55.9008    0.1868   55.9198    0.1750   55.9985    0.1895   55.9942    0.1899
  0.210   55.9676    0.1844   55.9126    0.1965   55.9240    0.1963   55.9431    0.1839   56.0219    0.1992   56.0175    0.1995
  0.220   55.9920    0.1933   55.9370    0.2061   55.9484    0.2058   55.9675    0.1928   56.0464    0.2088   56.0420    0.2092
  0.230   56.0176    0.2023   55.9625    0.2156   55.9739    0.2153   55.9931    0.2018   56.0720    0.2185   56.0677    0.2189
  0.240   56.0443    0.2113   55.9892    0.2252   56.0006    0.2249   56.0198    0.2108   56.0988    0.2282   56.0945    0.2287
  0.250   56.0723    0.2203   56.0170    0.2348   56.0285    0.2345   56.0477    0.2198   56.1268    0.2380   56.1225    0.2384
  0.260   56.1014    0.2294   56.0461    0.2445   56.0575    0.2442   56.0768    0.2288   56.1560    0.2478   56.1517    0.2482
  0.270   56.1316    0.2385   56.0762    0.2542   56.0877    0.2538   56.1071    0.2379   56.1864    0.2576   56.1820    0.2581
  0.280   56.1631    0.2476   56.1076    0.2639   56.1191    0.2635   56.1385    0.2470   56.2179    0.2674   56.2136    0.2679
  0.290   56.1957    0.2567   56.1402    0.2736   56.1516    0.2733   56.1711    0.2561   56.2506    0.2773   56.2463    0.2778
  0.300   56.2295    0.2659   56.1739    0.2834   56.1853    0.2830   56.2049    0.2652   56.2845    0.2872   56.2802    0.2878
  0.310   56.2645    0.2751   56.2088    0.2932   56.2203    0.2928   56.2399    0.2744   56.3196    0.2972   56.3153    0.2977
  0.320   56.3007    0.2844   56.2449    0.3030   56.2564    0.3027   56.2761    0.2836   56.3559    0.3071   56.3516    0.3077
  0.330   56.3381    0.2937   56.2822    0.3129   56.2937    0.3125   56.3135    0.2929   56.3934    0.3172   56.3891    0.3178
  0.340   56.3767    0.3030   56.3207    0.3229   56.3322    0.3225   56.3521    0.3022   56.4321    0.3272   56.4278    0.3278
  0.350   56.4166    0.3123   56.3604    0.3328   56.3719    0.3324   56.3919    0.3115   56.4720    0.3373   56.4677    0.3380
  0.360   56.4576    0.3217   56.4013    0.3428   56.4129    0.3424   56.4329    0.3209   56.5132    0.3475   56.5088    0.3481
  0.370   56.4998    0.3312   56.4435    0.3529   56.4550    0.3525   56.4751    0.3303   56.5556    0.3577   56.5512    0.3584
  0.380   56.5433    0.3407   56.4869    0.3630   56.4984    0.3625   56.5186    0.3398   56.5992    0.3679   56.5948    0.3686
  0.390   56.5880    0.3502   56.5315    0.3731   56.5430    0.3727   56.5633    0.3493   56.6440    0.3782   56.6397    0.3789
  0.400   56.6340    0.3598   56.5773    0.3833   56.5889    0.3829   56.6092    0.3589   56.6901    0.3885   56.6857    0.3893
  0.410   56.6812    0.3694   56.6244    0.3936   56.6360    0.3931   56.6564    0.3685   56.7374    0.3989   56.7331    0.3997
  0.420   56.7297    0.3791   56.6727    0.4039   56.6843    0.4034   56.7048    0.3781   56.7860    0.4094   56.7816    0.4101
  0.430   56.7794    0.3888   56.7223    0.4142   56.7339    0.4137   56.7545    0.3878   56.8359    0.4199   56.8315    0.4206
  0.440   56.8304    0.3985   56.7731    0.4246   56.7847    0.4241   56.8055    0.3976   56.8870    0.4304   56.8826    0.4312
  0.450   56.8826    0.4084   56.8252    0.4351   56.8369    0.4345   56.8577    0.4074   56.9394    0.4410   56.9350    0.4418
  0.460   56.9361    0.4182   56.8786    0.4456   56.8903    0.4450   56.9112    0.4172   56.9930    0.4517   56.9887    0.4525
  0.470   56.9910    0.4282   56.9333    0.4561   56.9450    0.4556   56.9660    0.4271   57.0480    0.4624   57.0436    0.4632
  0.480   57.0471    0.4382   56.9892    0.4668   57.0009    0.4662   57.0221    0.4371   57.1043    0.4732   57.0999    0.4740
  0.490   57.1045    0.4482   57.0465    0.4775   57.0582    0.4769   57.0795    0.4471   57.1618    0.4840   57.1575    0.4849
  0.500   57.1632    0.4583   57.1050    0.4882   57.1168    0.4876   57.1382    0.4572   57.2207    0.4949   57.2163    0.4958
  0.510   57.2232    0.4685   57.1649    0.4990   57.1767    0.4984   57.1982    0.4673   57.2809    0.5059   57.2765    0.5068
  0.520   57.2846    0.4787   57.2261    0.5099   57.2379    0.5093   57.2595    0.4775   57.3425    0.5169   57.3381    0.5178
  0.530   57.3473    0.4890   57.2887    0.5209   57.3004    0.5202   57.3222    0.4878   57.4053    0.5280   57.4009    0.5290
  0.540   57.4114    0.4994   57.3525    0.5319   57.3643    0.5312   57.3862    0.4982   57.4695    0.5392   57.4652    0.5402
  0.550   57.4767    0.5098   57.4177    0.5430   57.4296    0.5423   57.4516    0.5086   57.5351    0.5504   57.5307    0.5514
  0.560   57.5435    0.5203   57.4843    0.5541   57.4962    0.5535   57.5183    0.5190   57.6021    0.5618   57.5977    0.5628
  0.570   57.6116    0.5308   57.5523    0.5654   57.5641    0.5647   57.5864    0.5296   57.6704    0.5732   57.6660    0.5742
  0.580   57.6811    0.5415   57.6216    0.5767   57.6335    0.5760   57.6559    0.5402   57.7401    0.5847   57.7357    0.5857
  0.590   57.7521    0.5522   57.6923    0.5881   57.7042    0.5874   57.7268    0.5509   57.8112    0.5962   57.8068    0.5973
  0.600   57.8244    0.5630   57.7644    0.5996   57.7763    0.5988   57.7990    0.5617   57.8837    0.6079   57.8793    0.6089
  0.610   57.8981    0.5739   57.8379    0.6111   57.8499    0.6104   57.8727    0.5725   57.9576    0.6196   57.9532    0.6207
  0.620   57.9732    0.5848   57.9128    0.6228   57.9248    0.6220   57.9478    0.5835   58.0330    0.6314   58.0285    0.6325
  0.630   58.0498    0.5958   57.9892    0.6345   58.0012    0.6337   58.0244    0.5945   58.1097    0.6433   58.1053    0.6444
  0.640   58.1278    0.6069   58.0670    0.6463   58.0790    0.6455   58.1024    0.6056   58.1880    0.6553   58.1835    0.6564
  0.650   58.2073    0.6181   58.1462    0.6582   58.1583    0.6574   58.1818    0.6167   58.2677    0.6674   58.2632    0.6685
  0.660   58.2882    0.6294   58.2270    0.6702   58.2390    0.6694   58.2627    0.6280   58.3488    0.6795   58.3444    0.6807
  0.670   58.3706    0.6408   58.3091    0.6823   58.3212    0.6815   58.3451    0.6394   58.4315    0.6918   58.4270    0.6930
  0.680   58.4545    0.6523   58.3928    0.6945   58.4049    0.6936   58.4290    0.6508   58.5156    0.7042   58.5112    0.7054
  0.690   58.5399    0.6638   58.4780    0.7067   58.4901    0.7059   58.5143    0.6624   58.6013    0.7166   58.5968    0.7179
  0.700   58.6269    0.6755   58.5647    0.7191   58.5769    0.7183   58.6012    0.6740   58.6884    0.7292   58.6840    0.7305
  0.710   58.7153    0.6873   58.6529    0.7316   58.6651    0.7308   58.6897    0.6857   58.7771    0.7419   58.7727    0.7432
  0.720   58.8053    0.6991   58.7426    0.7442   58.7549    0.7433   58.7796    0.6976   58.8674    0.7547   58.8629    0.7560
  0.730   58.8969    0.7111   58.8339    0.7569   58.8462    0.7560   58.8711    0.7095   58.9592    0.7676   58.9547    0.7689
  0.740   58.9900    0.7231   58.9268    0.7697   58.9391    0.7688   58.9642    0.7216   59.0526    0.7806   59.0481    0.7819
  0.750   59.0847    0.7353   59.0213    0.7826   59.0336    0.7817   59.0589    0.7337   59.1476    0.7937   59.1431    0.7950
  0.760   59.1810    0.7476   59.1173    0.7957   59.1296    0.7948   59.1552    0.7460   59.2442    0.8069   59.2397    0.8083
  0.770   59.2790    0.7600   59.2149    0.8088   59.2273    0.8079   59.2531    0.7583   59.3424    0.8203   59.3379    0.8216
  0.780   59.3785    0.7725   59.3142    0.8221   59.3266    0.8212   59.3526    0.7708   59.4422    0.8337   59.4377    0.8351
  0.790   59.4797    0.7851   59.4151    0.8355   59.4276    0.8345   59.4538    0.7834   59.5437    0.8473   59.5392    0.8488
  0.800   59.5826    0.7978   59.5177    0.8490   59.5302    0.8480   59.5566    0.7962   59.6469    0.8611   59.6424    0.8625
  0.810   59.6871    0.8107   59.6219    0.8627   59.6344    0.8617   59.6611    0.8090   59.7517    0.8749   59.7472    0.8764
  0.820   59.7934    0.8236   59.7279    0.8764   59.7404    0.8754   59.7673    0.8220   59.8582    0.8889   59.8537    0.8904
  0.830   59.9013    0.8368   59.8355    0.8903   59.8481    0.8893   59.8752    0.8351   59.9665    0.9031   59.9620    0.9045
  0.840   60.0110    0.8500   59.9449    0.9044   59.9575    0.9034   59.9848    0.8483   60.0765    0.9173   60.0720    0.9188
  0.850   60.1224    0.8634   60.0560    0.9186   60.0686    0.9176   60.0962    0.8617   60.1882    0.9317   60.1837    0.9332
  0.860   60.2356    0.8769   60.1688    0.9329   60.1815    0.9319   60.2093    0.8751   60.3017    0.9463   60.2972    0.9478
  0.870   60.3506    0.8905   60.2835    0.9474   60.2962    0.9463   60.3243    0.8888   60.4170    0.9610   60.4125    0.9625
  0.880   60.4673    0.9043   60.3999    0.9620   60.4126    0.9609   60.4410    0.9026   60.5341    0.9758   60.5296    0.9774
  0.890   60.5859    0.9182   60.5181    0.9768   60.5309    0.9757   60.5595    0.9165   60.6531    0.9908   60.6485    0.9924
  0.900   60.7063    0.9323   60.6382    0.9917   60.6510    0.9906   60.6799    0.9305   60.7739    1.0060   60.7693    1.0076
  0.910   60.8286    0.9465   60.7602    1.0068   60.7730    1.0057   60.8022    0.9448   60.8965    1.0213   60.8920    1.0229
  0.920   60.9528    0.9609   60.8840    1.0220   60.8968    1.0209   60.9263    0.9591   61.0210    1.0368   61.0165    1.0384
  0.930   61.0789    0.9754   61.0097    1.0374   61.0226    1.0363   61.0523    0.9736   61.1475    1.0525   61.1429    1.0541
  0.940   61.2069    0.9901   61.1373    1.0530   61.1502    1.0519   61.1803    0.9883   61.2759    1.0683   61.2713    1.0700
  0.950   61.3368    1.0050   61.2668    1.0687   61.2798    1.0676   61.3102    1.0032   61.4062    1.0843   61.4016    1.0860
  0.960   61.4687    1.0200   61.3984    1.0847   61.4114    1.0835   61.4421    1.0182   61.5385    1.1005   61.5339    1.1022
  0.970   61.6026    1.0352   61.5319    1.1008   61.5449    1.0996   61.5759    1.0334   61.6728    1.1168   61.6682    1.1186
  0.980   61.7385    1.0506   61.6674    1.1170   61.6805    1.1159   61.7118    1.0488   61.8091    1.1334   61.8045    1.1351
  0.990   61.8765    1.0661   61.8049    1.1335   61.8181    1.1323   61.8497    1.0643   61.9475    1.1501   61.9429    1.1519
  1.000   62.0165    1.0818   61.9445    1.1502   61.9577    1.1490   61.9897    1.0800   62.0879    1.1671   62.0833    1.1688
  1.010   62.1586    1.0978   62.0862    1.1670   62.0994    1.1658   62.1317    1.0959   62.2304    1.1842   62.2258    1.1860
  1.020   62.3028    1.1139   62.2300    1.1841   62.2433    1.1829   62.2759    1.1120   62.3751    1.2016   62.3705    1.2033
  1.030   62.4492    1.1302   62.3759    1.2013   62.3892    1.2001   62.4222    1.1283   62.5219    1.2191   62.5173    1.2209
  1.040   62.5977    1.1467   62.5240    1.2188   62.5373    1.2176   62.5707    1.1448   62.6708    1.2369   62.6662    1.2387
  1.050   62.7484    1.1634   62.6743    1.2365   62.6876    1.2352   62.7214    1.1615   62.8220    1.2548   62.8174    1.2567
  1.060   62.9014    1.1803   62.8267    1.2544   62.8402    1.2531   62.8743    1.1784   62.9754    1.2730   62.9708    1.2749
  1.070   63.0565    1.1974   62.9814    1.2725   62.9949    1.2712   63.0294    1.1956   63.1311    1.2915   63.1264    1.2933
  1.080   63.2140    1.2147   63.1384    1.2908   63.1520    1.2895   63.1868    1.2129   63.2890    1.3101   63.2844    1.3120
  1.090   63.3738    1.2323   63.2977    1.3094   63.3113    1.3081   63.3466    1.2305   63.4493    1.3290   63.4446    1.3309
  1.100   63.5359    1.2500   63.4593    1.3282   63.4730    1.3269   63.5086    1.2482   63.6119    1.3481   63.6072    1.3501
  1.110   63.7004    1.2681   63.6233    1.3473   63.6370    1.3459   63.6731    1.2663   63.7768    1.3675   63.7722    1.3695
  1.120   63.8673    1.2863   63.7897    1.3666   63.8034    1.3652   63.8399    1.2845   63.9442    1.3872   63.9396    1.3891
  1.130   64.0366    1.3048   63.9585    1.3861   63.9723    1.3848   64.0092    1.3030   64.1141    1.4071   64.1094    1.4090
  1.140   64.2084    1.3235   64.1297    1.4059   64.1436    1.4046   64.1809    1.3217   64.2864    1.4272   64.2817    1.4292
  1.150   64.3827    1.3425   64.3035    1.4260   64.3174    1.4246   64.3552    1.3407   64.4612    1.4476   64.4566    1.4496
  1.160   64.5595    1.3618   64.4798    1.4464   64.4937    1.4450   64.5320    1.3600   64.6386    1.4683   64.6339    1.4703
  1.170   64.7389    1.3813   64.6586    1.4670   64.6726    1.4656   64.7113    1.3795   64.8186    1.4893   64.8139    1.4913
  1.180   64.9209    1.4010   64.8400    1.4879   64.8541    1.4865   64.8933    1.3993   65.0011    1.5106   64.9964    1.5126
  1.190   65.1055    1.4211   65.0241    1.5091   65.0382    1.5076   65.0779    1.4194   65.1864    1.5322   65.1817    1.5342
  1.200   65.2929    1.4414   65.2108    1.5305   65.2250    1.5291   65.2652    1.4397   65.3743    1.5540   65.3696    1.5561
  1.210   65.4829    1.4620   65.4003    1.5523   65.4145    1.5509   65.4552    1.4604   65.5649    1.5762   65.5602    1.5783
  1.220   65.6757    1.4830   65.5925    1.5744   65.6068    1.5730   65.6480    1.4813   65.7584    1.5987   65.7537    1.6008
  1.230   65.8714    1.5042   65.7875    1.5968   65.8018    1.5954   65.8436    1.5025   65.9546    1.6215   65.9499    1.6236
  1.240   66.0698    1.5257   65.9853    1.6196   65.9997    1.6181   66.0420    1.5241   66.1537    1.6447   66.1490    1.6468
  1.250   66.2712    1.5476   66.1860    1.6426   66.2005    1.6412   66.2433    1.5460   66.3557    1.6682   66.3510    1.6703
  1.260   66.4755    1.5697   66.3897    1.6660   66.4042    1.6645   66.4476    1.5681   66.5606    1.6920   66.5559    1.6941
  1.270   66.6827    1.5922   66.5963    1.6898   66.6108    1.6883   66.6548    1.5907   66.7686    1.7162   66.7638    1.7183
  1.280   66.8930    1.6151   66.8059    1.7139   66.8205    1.7124   66.8650    1.6135   66.9795    1.7407   66.9748    1.7429
  1.290   67.1063    1.6382   67.0185    1.7384   67.0332    1.7368   67.0784    1.6367   67.1936    1.7657   67.1888    1.7678
  1.300   67.3228    1.6618   67.2343    1.7632   67.2490    1.7617   67.2948    1.6603   67.4107    1.7910   67.4060    1.7932
  1.310   67.5425    1.6857   67.4532    1.7884   67.4680    1.7869   67.5144    1.6843   67.6311    1.8167   67.6263    1.8189
  1.320   67.7653    1.7100   67.6753    1.8140   67.6902    1.8125   67.7372    1.7086   67.8546    1.8427   67.8499    1.8450
  1.330   67.9914    1.7346   67.9007    1.8400   67.9156    1.8385   67.9633    1.7333   68.0815    1.8692   68.0768    1.8715
  1.340   68.2209    1.7597   68.1294    1.8664   68.1444    1.8649   68.1927    1.7583   68.3117    1.8962   68.3070    1.8984
  1.350   68.4537    1.7851   68.3614    1.8933   68.3765    1.8917   68.4255    1.7838   68.5453    1.9235   68.5405    1.9257
  1.360   68.6899    1.8110   68.5969    1.9205   68.6120    1.9189   68.6617    1.8097   68.7823    1.9513   68.7776    1.9535
  1.370   68.9297    1.8372   68.8358    1.9482   68.8510    1.9466   68.9014    1.8360   69.0228    1.9795   69.0181    1.9818
  1.380   69.1729    1.8639   69.0783    1.9764   69.0936    1.9748   69.1447    1.8628   69.2669    2.0082   69.2622    2.0105
  1.390   69.4198    1.8911   69.3243    2.0050   69.3397    2.0034   69.3916    1.8900   69.5146    2.0374   69.5099    2.0396
  1.400   69.6704    1.9187   69.5740    2.0341   69.5895    2.0324   69.6421    1.9176   69.7660    2.0670   69.7613    2.0693
  1.410   69.9247    1.9467   69.8275    2.0636   69.8430    2.0620   69.8964    1.9457   70.0212    2.0971   70.0164    2.0994
  1.420   70.1827    1.9753   70.0847    2.0937   70.1002    2.0920   70.1544    1.9743   70.2801    2.1278   70.2754    2.1301
  1.430   70.4447    2.0043   70.3457    2.1242   70.3614    2.1226   70.4164    2.0034   70.5429    2.1590   70.5382    2.1613
  1.440   70.7106    2.0338   70.6107    2.1553   70.6264    2.1537   70.6822    2.0330   70.8097    2.1907   70.8050    2.1930
  1.450   70.9804    2.0638   70.8796    2.1869   70.8954    2.1853   70.9521    2.0631   71.0805    2.2229   71.0757    2.2252
  1.460   71.2543    2.0944   71.1526    2.2191   71.1685    2.2174   71.2260    2.0937   71.3554    2.2557   71.3506    2.2580
  1.470   71.5324    2.1255   71.4297    2.2518   71.4456    2.2501   71.5041    2.1249   71.6344    2.2891   71.6296    2.2914
  1.480   71.8147    2.1571   71.7110    2.2851   71.7270    2.2834   71.7864    2.1566   71.9177    2.3231   71.9129    2.3254
