# Macroscopic dielectric function obtained with the BS equation.
#  RPA L0 with KS energies and KS wavefunctions     LOCAL FIELD EFFECTS INCLUDED
# RESONANT-ONLY calculation
# Coulomb term constructed with full W(G1,G2)
# Scissor operator energy =  0.8000 [eV]
# Tolerance = -0.0010 0.0000
# npweps  = 113
# npwwfn  = 283
# nbands  = 8
# loband  = 2
# nkibz   = 3
# nkbz    = 8
# Lorentzian broadening =  0.0001 [eV]
# List of q-points for the optical limit:
# q =  0.938821, 0.000000, 0.000000, [Reduced coords] 
# q =  0.000000, 0.938821, 0.000000, [Reduced coords] 
# q =  0.000000, 0.000000, 0.938821, [Reduced coords] 
# q =  0.000000, 0.813043, 0.813043, [Reduced coords] 
# q =  0.813043, 0.000000, 0.813043, [Reduced coords] 
# q =  0.813043, 0.813043, 0.000000, [Reduced coords] 
# omega [eV]    RE(eps(q=1)) IM(eps(q=1) RE(eps(q=2) ) ... 
  0.000   57.5963    0.0000   57.4430    0.0000   57.4575    0.0000   57.5296    0.0000   57.6798    0.0000   57.6827    0.0000
  0.010   57.5970    0.0215   57.4437    0.0229   57.4581    0.0228   57.5302    0.0215   57.6804    0.0231   57.6833    0.0231
  0.020   57.5988    0.0430   57.4455    0.0457   57.4599    0.0457   57.5320    0.0430   57.6823    0.0462   57.6852    0.0463
  0.030   57.6019    0.0646   57.4486    0.0686   57.4630    0.0685   57.5351    0.0645   57.6854    0.0693   57.6883    0.0695
  0.040   57.6062    0.0861   57.4529    0.0915   57.4673    0.0914   57.5395    0.0860   57.6897    0.0925   57.6926    0.0926
  0.050   57.6118    0.1076   57.4584    0.1144   57.4728    0.1142   57.5450    0.1075   57.6953    0.1156   57.6982    0.1158
  0.060   57.6186    0.1292   57.4651    0.1373   57.4796    0.1371   57.5518    0.1290   57.7022    0.1388   57.7050    0.1390
  0.070   57.6267    0.1508   57.4731    0.1602   57.4876    0.1600   57.5599    0.1506   57.7102    0.1619   57.7131    0.1622
  0.080   57.6359    0.1724   57.4823    0.1831   57.4968    0.1829   57.5691    0.1721   57.7196    0.1851   57.7224    0.1854
  0.090   57.6465    0.1940   57.4928    0.2061   57.5072    0.2059   57.5796    0.1937   57.7301    0.2083   57.7330    0.2087
  0.100   57.6583    0.2156   57.5045    0.2291   57.5189    0.2288   57.5914    0.2153   57.7419    0.2316   57.7448    0.2320
  0.110   57.6713    0.2373   57.5174    0.2521   57.5318    0.2518   57.6044    0.2370   57.7550    0.2549   57.7579    0.2553
  0.120   57.6855    0.2590   57.5315    0.2752   57.5460    0.2749   57.6187    0.2587   57.7693    0.2782   57.7722    0.2787
  0.130   57.7011    0.2807   57.5469    0.2983   57.5614    0.2980   57.6342    0.2804   57.7849    0.3015   57.7877    0.3020
  0.140   57.7178    0.3025   57.5635    0.3214   57.5780    0.3211   57.6509    0.3021   57.8017    0.3249   57.8046    0.3255
  0.150   57.7358    0.3243   57.5814    0.3446   57.5959    0.3442   57.6689    0.3239   57.8198    0.3483   57.8226    0.3489
  0.160   57.7551    0.3462   57.6005    0.3678   57.6150    0.3674   57.6882    0.3458   57.8391    0.3718   57.8420    0.3725
  0.170   57.7757    0.3681   57.6209    0.3911   57.6354    0.3907   57.7087    0.3676   57.8597    0.3953   57.8626    0.3960
  0.180   57.7975    0.3901   57.6425    0.4144   57.6570    0.4139   57.7304    0.3896   57.8816    0.4189   57.8844    0.4196
  0.190   57.8205    0.4121   57.6654    0.4378   57.6799    0.4373   57.7535    0.4115   57.9047    0.4425   57.9076    0.4433
  0.200   57.8448    0.4341   57.6895    0.4612   57.7040    0.4607   57.7778    0.4336   57.9291    0.4662   57.9320    0.4671
  0.210   57.8704    0.4563   57.7149    0.4847   57.7294    0.4842   57.8033    0.4557   57.9548    0.4900   57.9577    0.4909
  0.220   57.8973    0.4785   57.7415    0.5083   57.7561    0.5077   57.8302    0.4778   57.9817    0.5138   57.9846    0.5147
  0.230   57.9255    0.5007   57.7695    0.5319   57.7840    0.5313   57.8583    0.5001   58.0100    0.5377   58.0129    0.5387
  0.240   57.9549    0.5230   57.7986    0.5556   57.8132    0.5550   57.8877    0.5223   58.0395    0.5617   58.0424    0.5627
  0.250   57.9856    0.5454   57.8291    0.5794   57.8437    0.5787   57.9184    0.5447   58.0703    0.5857   58.0732    0.5867
  0.260   58.0176    0.5679   57.8608    0.6032   57.8754    0.6026   57.9503    0.5671   58.1024    0.6098   58.1053    0.6109
  0.270   58.0509    0.5904   57.8939    0.6272   57.9084    0.6265   57.9836    0.5897   58.1358    0.6340   58.1387    0.6351
  0.280   58.0855    0.6130   57.9282    0.6512   57.9428    0.6505   58.0181    0.6123   58.1705    0.6583   58.1734    0.6595
  0.290   58.1214    0.6357   57.9638    0.6753   57.9784    0.6745   58.0540    0.6349   58.2066    0.6827   58.2095    0.6839
  0.300   58.1586    0.6585   58.0007    0.6995   58.0153    0.6987   58.0912    0.6577   58.2439    0.7072   58.2468    0.7084
  0.310   58.1972    0.6814   58.0389    0.7238   58.0535    0.7230   58.1296    0.6806   58.2825    0.7317   58.2854    0.7330
  0.320   58.2370    0.7044   58.0784    0.7481   58.0930    0.7473   58.1694    0.7035   58.3225    0.7564   58.3254    0.7577
  0.330   58.2782    0.7275   58.1192    0.7726   58.1339    0.7718   58.2106    0.7266   58.3638    0.7812   58.3667    0.7825
  0.340   58.3207    0.7506   58.1614    0.7972   58.1760    0.7964   58.2530    0.7497   58.4065    0.8060   58.4094    0.8074
  0.350   58.3645    0.7739   58.2048    0.8219   58.2195    0.8210   58.2968    0.7730   58.4504    0.8310   58.4533    0.8325
  0.360   58.4097    0.7973   58.2496    0.8467   58.2643    0.8458   58.3419    0.7963   58.4958    0.8561   58.4987    0.8576
  0.370   58.4562    0.8208   58.2958    0.8717   58.3105    0.8707   58.3884    0.8198   58.5424    0.8813   58.5453    0.8829
  0.380   58.5041    0.8444   58.3433    0.8967   58.3580    0.8958   58.4362    0.8434   58.5905    0.9067   58.5934    0.9082
  0.390   58.5534    0.8681   58.3921    0.9219   58.4068    0.9209   58.4854    0.8671   58.6399    0.9322   58.6428    0.9338
  0.400   58.6040    0.8920   58.4423    0.9472   58.4570    0.9462   58.5359    0.8909   58.6906    0.9578   58.6936    0.9594
  0.410   58.6560    0.9160   58.4938    0.9726   58.5086    0.9716   58.5879    0.9149   58.7428    0.9835   58.7457    0.9852
  0.420   58.7093    0.9401   58.5468    0.9982   58.5615    0.9971   58.6412    0.9389   58.7964    1.0094   58.7993    1.0111
  0.430   58.7641    0.9643   58.6011    1.0239   58.6158    1.0228   58.6959    0.9631   58.8513    1.0354   58.8542    1.0371
  0.440   58.8203    0.9887   58.6568    1.0497   58.6715    1.0486   58.7520    0.9875   58.9076    1.0615   58.9106    1.0633
  0.450   58.8778    1.0132   58.7138    1.0757   58.7286    1.0746   58.8095    1.0120   58.9654    1.0878   58.9683    1.0897
  0.460   58.9368    1.0378   58.7723    1.1019   58.7872    1.1007   58.8684    1.0366   59.0246    1.1143   59.0275    1.1162
  0.470   58.9972    1.0627   58.8322    1.1282   58.8471    1.1270   58.9287    1.0614   59.0852    1.1409   59.0881    1.1428
  0.480   59.0591    1.0876   58.8935    1.1546   58.9084    1.1534   58.9905    1.0864   59.1472    1.1677   59.1502    1.1697
  0.490   59.1224    1.1127   58.9563    1.1813   58.9712    1.1800   59.0537    1.1114   59.2107    1.1946   59.2136    1.1967
  0.500   59.1871    1.1380   59.0205    1.2080   59.0354    1.2068   59.1184    1.1367   59.2756    1.2218   59.2786    1.2238
  0.510   59.2533    1.1634   59.0861    1.2350   59.1010    1.2337   59.1845    1.1621   59.3421    1.2491   59.3450    1.2512
  0.520   59.3210    1.1891   59.1532    1.2621   59.1681    1.2608   59.2521    1.1877   59.4099    1.2765   59.4129    1.2787
  0.530   59.3901    1.2148   59.2217    1.2895   59.2367    1.2881   59.3212    1.2135   59.4793    1.3042   59.4823    1.3064
  0.540   59.4607    1.2408   59.2918    1.3170   59.3068    1.3156   59.3917    1.2394   59.5502    1.3321   59.5531    1.3343
  0.550   59.5329    1.2670   59.3633    1.3447   59.3783    1.3433   59.4638    1.2656   59.6225    1.3601   59.6255    1.3624
  0.560   59.6065    1.2933   59.4363    1.3726   59.4513    1.3711   59.5373    1.2919   59.6964    1.3884   59.6994    1.3907
  0.570   59.6817    1.3198   59.5108    1.4007   59.5259    1.3992   59.6124    1.3184   59.7718    1.4168   59.7748    1.4191
  0.580   59.7584    1.3465   59.5869    1.4290   59.6019    1.4275   59.6890    1.3451   59.8488    1.4455   59.8518    1.4478
  0.590   59.8367    1.3735   59.6644    1.4575   59.6795    1.4560   59.7672    1.3720   59.9273    1.4743   59.9303    1.4768
  0.600   59.9165    1.4006   59.7436    1.4862   59.7587    1.4847   59.8469    1.3991   60.0074    1.5034   60.0104    1.5059
  0.610   59.9978    1.4279   59.8242    1.5151   59.8394    1.5136   59.9282    1.4264   60.0890    1.5328   60.0920    1.5353
  0.620   60.0808    1.4555   59.9065    1.5443   59.9216    1.5427   60.0110    1.4540   60.1722    1.5623   60.1752    1.5649
  0.630   60.1654    1.4833   59.9903    1.5737   60.0055    1.5721   60.0955    1.4817   60.2571    1.5921   60.2601    1.5947
  0.640   60.2515    1.5113   60.0757    1.6033   60.0909    1.6017   60.1816    1.5097   60.3435    1.6221   60.3465    1.6248
  0.650   60.3393    1.5395   60.1627    1.6332   60.1779    1.6316   60.2692    1.5380   60.4316    1.6524   60.4346    1.6551
  0.660   60.4287    1.5680   60.2513    1.6633   60.2666    1.6617   60.3586    1.5664   60.5213    1.6829   60.5243    1.6856
  0.670   60.5198    1.5967   60.3416    1.6937   60.3569    1.6920   60.4495    1.5951   60.6126    1.7137   60.6156    1.7165
  0.680   60.6125    1.6257   60.4335    1.7243   60.4488    1.7226   60.5421    1.6241   60.7056    1.7448   60.7087    1.7476
  0.690   60.7069    1.6549   60.5271    1.7552   60.5424    1.7535   60.6364    1.6533   60.8003    1.7761   60.8034    1.7789
  0.700   60.8030    1.6844   60.6223    1.7864   60.6377    1.7846   60.7324    1.6828   60.8968    1.8077   60.8998    1.8106
  0.710   60.9008    1.7141   60.7192    1.8179   60.7346    1.8161   60.8301    1.7125   60.9949    1.8396   60.9979    1.8425
  0.720   61.0003    1.7441   60.8179    1.8496   60.8333    1.8478   60.9295    1.7425   61.0947    1.8718   61.0978    1.8747
  0.730   61.1016    1.7744   60.9182    1.8816   60.9337    1.8798   61.0307    1.7728   61.1963    1.9042   61.1994    1.9072
  0.740   61.2046    1.8050   61.0203    1.9139   61.0358    1.9121   61.1336    1.8034   61.2997    1.9370   61.3027    1.9400
  0.750   61.3094    1.8359   61.1242    1.9466   61.1397    1.9446   61.2383    1.8342   61.4048    1.9701   61.4079    1.9732
  0.760   61.4160    1.8670   61.2298    1.9795   61.2453    1.9776   61.3447    1.8654   61.5117    2.0035   61.5148    2.0066
  0.770   61.5244    1.8985   61.3372    2.0127   61.3528    2.0108   61.4530    1.8968   61.6204    2.0372   61.6235    2.0404
  0.780   61.6346    1.9303   61.4464    2.0463   61.4620    2.0443   61.5631    1.9286   61.7310    2.0713   61.7341    2.0745
  0.790   61.7466    1.9624   61.5575    2.0802   61.5731    2.0782   61.6750    1.9607   61.8434    2.1057   61.8465    2.1089
  0.800   61.8605    1.9948   61.6703    2.1144   61.6860    2.1124   61.7888    1.9931   61.9577    2.1404   61.9608    2.1437
  0.810   61.9763    2.0275   61.7851    2.1490   61.8008    2.1470   61.9044    2.0259   62.0739    2.1755   62.0770    2.1788
  0.820   62.0940    2.0606   61.9017    2.1840   61.9174    2.1819   62.0220    2.0590   62.1919    2.2110   62.1951    2.2143
  0.830   62.2136    2.0941   62.0202    2.2193   62.0360    2.2171   62.1415    2.0924   62.3119    2.2468   62.3151    2.2502
  0.840   62.3351    2.1279   62.1406    2.2549   62.1564    2.2528   62.2629    2.1262   62.4339    2.2830   62.4370    2.2864
  0.850   62.4586    2.1620   62.2630    2.2910   62.2788    2.2888   62.3863    2.1604   62.5578    2.3196   62.5609    2.3230
  0.860   62.5841    2.1966   62.3873    2.3274   62.4032    2.3252   62.5116    2.1949   62.6837    2.3566   62.6868    2.3601
  0.870   62.7116    2.2315   62.5137    2.3642   62.5295    2.3620   62.6390    2.2299   62.8116    2.3939   62.8148    2.3975
  0.880   62.8411    2.2668   62.6420    2.4015   62.6579    2.3992   62.7684    2.2652   62.9415    2.4317   62.9447    2.4353
  0.890   62.9727    2.3025   62.7723    2.4391   62.7883    2.4368   62.8998    2.3009   63.0735    2.4700   63.0767    2.4736
  0.900   63.1063    2.3386   62.9047    2.4771   62.9207    2.4749   63.0333    2.3370   63.2076    2.5086   63.2108    2.5123
  0.910   63.2421    2.3751   63.0392    2.5156   63.0552    2.5133   63.1689    2.3735   63.3437    2.5477   63.3470    2.5514
  0.920   63.3799    2.4120   63.1757    2.5546   63.1918    2.5522   63.3066    2.4104   63.4820    2.5873   63.4853    2.5910
  0.930   63.5199    2.4494   63.3144    2.5939   63.3305    2.5916   63.4465    2.4478   63.6225    2.6273   63.6257    2.6310
  0.940   63.6620    2.4872   63.4552    2.6338   63.4713    2.6314   63.5885    2.4856   63.7651    2.6677   63.7684    2.6715
  0.950   63.8064    2.5254   63.5982    2.6741   63.6144    2.6717   63.7327    2.5239   63.9099    2.7087   63.9132    2.7125
  0.960   63.9530    2.5641   63.7434    2.7149   63.7596    2.7124   63.8791    2.5626   64.0570    2.7501   64.0603    2.7540
  0.970   64.1018    2.6033   63.8908    2.7561   63.9070    2.7537   64.0278    2.6019   64.2063    2.7921   64.2096    2.7960
  0.980   64.2529    2.6430   64.0404    2.7979   64.0567    2.7954   64.1787    2.6416   64.3579    2.8346   64.3612    2.8385
  0.990   64.4063    2.6832   64.1924    2.8402   64.2087    2.8377   64.3320    2.6818   64.5118    2.8776   64.5151    2.8815
  1.000   64.5620    2.7238   64.3466    2.8830   64.3630    2.8805   64.4876    2.7225   64.6680    2.9211   64.6714    2.9251
  1.010   64.7201    2.7650   64.5032    2.9264   64.5196    2.9238   64.6455    2.7637   64.8266    2.9652   64.8300    2.9692
  1.020   64.8806    2.8067   64.6621    2.9703   64.6786    2.9677   64.8058    2.8054   64.9876    3.0098   64.9910    3.0139
  1.030   65.0435    2.8490   64.8234    3.0147   64.8399    3.0121   64.9686    2.8477   65.1511    3.0550   65.1545    3.0592
  1.040   65.2088    2.8918   64.9872    3.0598   65.0037    3.0571   65.1338    2.8906   65.3170    3.1008   65.3204    3.1050
  1.050   65.3767    2.9352   65.1534    3.1054   65.1700    3.1027   65.3015    2.9340   65.4854    3.1472   65.4888    3.1514
  1.060   65.5470    2.9791   65.3221    3.1516   65.3387    3.1489   65.4717    2.9780   65.6563    3.1942   65.6597    3.1985
  1.070   65.7200    3.0237   65.4933    3.1984   65.5100    3.1957   65.6445    3.0225   65.8298    3.2419   65.8332    3.2462
  1.080   65.8955    3.0688   65.6671    3.2459   65.6838    3.2431   65.8198    3.0677   66.0059    3.2902   66.0093    3.2945
  1.090   66.0736    3.1146   65.8434    3.2940   65.8602    3.2912   65.9978    3.1135   66.1846    3.3391   66.1881    3.3435
  1.100   66.2544    3.1610   66.0224    3.3427   66.0392    3.3399   66.1784    3.1600   66.3659    3.3887   66.3695    3.3931
  1.110   66.4379    3.2080   66.2041    3.3922   66.2209    3.3893   66.3618    3.2071   66.5500    3.4391   66.5536    3.4435
  1.120   66.6241    3.2557   66.3884    3.4423   66.4053    3.4394   66.5478    3.2548   66.7369    3.4901   66.7404    3.4945
  1.130   66.8130    3.3041   66.5755    3.4931   66.5925    3.4902   66.7366    3.3033   66.9265    3.5418   66.9300    3.5463
  1.140   67.0048    3.3531   66.7653    3.5446   66.7824    3.5417   66.9283    3.3524   67.1189    3.5943   67.1225    3.5988
  1.150   67.1995    3.4029   66.9580    3.5969   66.9751    3.5939   67.1227    3.4022   67.3142    3.6475   67.3178    3.6521
  1.160   67.3970    3.4534   67.1535    3.6499   67.1707    3.6469   67.3201    3.4528   67.5123    3.7015   67.5160    3.7061
  1.170   67.5975    3.5047   67.3520    3.7037   67.3691    3.7007   67.5204    3.5041   67.7135    3.7563   67.7171    3.7609
  1.180   67.8009    3.5567   67.5533    3.7582   67.5705    3.7552   67.7237    3.5562   67.9176    3.8119   67.9213    3.8166
  1.190   68.0074    3.6095   67.7577    3.8136   67.7749    3.8106   67.9300    3.6091   68.1247    3.8683   68.1285    3.8730
  1.200   68.2169    3.6631   67.9650    3.8698   67.9824    3.8667   68.1394    3.6628   68.3350    3.9256   68.3387    3.9303
  1.210   68.4296    3.7175   68.1755    3.9269   68.1929    3.9238   68.3519    3.7173   68.5483    3.9838   68.5521    3.9885
  1.220   68.6454    3.7727   68.3890    3.9848   68.4065    3.9816   68.5675    3.7726   68.7648    4.0428   68.7686    4.0476
  1.230   68.8644    3.8288   68.6058    4.0436   68.6232    4.0404   68.7864    3.8288   68.9846    4.1027   68.9884    4.1076
  1.240   69.0867    3.8858   68.8257    4.1033   68.8432    4.1001   69.0085    3.8859   69.2076    4.1636   69.2114    4.1685
  1.250   69.3123    3.9436   69.0489    4.1639   69.0665    4.1607   69.2339    3.9438   69.4339    4.2255   69.4378    4.2304
  1.260   69.5412    4.0024   69.2754    4.2255   69.2931    4.2223   69.4627    4.0027   69.6636    4.2883   69.6675    4.2932
  1.270   69.7736    4.0622   69.5053    4.2881   69.5230    4.2848   69.6949    4.0626   69.8967    4.3521   69.9007    4.3571
  1.280   70.0094    4.1229   69.7386    4.3516   69.7564    4.3483   69.9306    4.1234   70.1333    4.4170   70.1373    4.4219
  1.290   70.2487    4.1846   69.9754    4.4162   69.9932    4.4129   70.1698    4.1852   70.3735    4.4829   70.3775    4.4879
  1.300   70.4917    4.2473   70.2157    4.4819   70.2336    4.4785   70.4126    4.2481   70.6172    4.5499   70.6213    4.5549
  1.310   70.7382    4.3110   70.4596    4.5486   70.4775    4.5452   70.6590    4.3119   70.8646    4.6179   70.8687    4.6230
  1.320   70.9885    4.3758   70.7072    4.6164   70.7252    4.6130   70.9091    4.3769   71.1157    4.6872   71.1198    4.6923
  1.330   71.2426    4.4417   70.9584    4.6853   70.9765    4.6819   71.1630    4.4430   71.3706    4.7576   71.3747    4.7627
  1.340   71.5004    4.5088   71.2134    4.7554   71.2316    4.7520   71.4207    4.5101   71.6293    4.8291   71.6335    4.8343
  1.350   71.7622    4.5769   71.4723    4.8267   71.4905    4.8233   71.6823    4.5785   71.8919    4.9020   71.8961    4.9071
  1.360   72.0279    4.6463   71.7351    4.8992   71.7533    4.8957   71.9479    4.6480   72.1585    4.9760   72.1628    4.9812
  1.370   72.2976    4.7169   72.0018    4.9730   72.0201    4.9695   72.2174    4.7188   72.4291    5.0514   72.4334    5.0566
  1.380   72.5715    4.7887   72.2726    5.0480   72.2909    5.0445   72.4911    4.7908   72.7038    5.1280   72.7082    5.1333
  1.390   72.8495    4.8618   72.5474    5.1244   72.5659    5.1208   72.7690    4.8640   72.9827    5.2061   72.9871    5.2113
  1.400   73.1317    4.9362   72.8265    5.2021   72.8450    5.1985   73.0511    4.9386   73.2659    5.2855   73.2704    5.2908
  1.410   73.4182    5.0119   73.1098    5.2812   73.1283    5.2776   73.3375    5.0146   73.5534    5.3664   73.5579    5.3717
  1.420   73.7092    5.0891   73.3974    5.3617   73.4160    5.3581   73.6283    5.0919   73.8453    5.4487   73.8498    5.4540
  1.430   74.0046    5.1676   73.6894    5.4437   73.7081    5.4400   73.9236    5.1707   74.1417    5.5325   74.1463    5.5378
  1.440   74.3046    5.2476   73.9859    5.5271   74.0047    5.5235   74.2234    5.2509   74.4426    5.6179   74.4473    5.6232
  1.450   74.6092    5.3291   74.2870    5.6121   74.3058    5.6084   74.5279    5.3326   74.7482    5.7048   74.7529    5.7102
  1.460   74.9185    5.4121   74.5927    5.6987   74.6116    5.6950   74.8371    5.4159   75.0585    5.7934   75.0633    5.7988
  1.470   75.2326    5.4967   74.9031    5.7869   74.9221    5.7832   75.1511    5.5007   75.3737    5.8837   75.3785    5.8891
  1.480   75.5517    5.5829   75.2184    5.8768   75.2374    5.8730   75.4700    5.5872   75.6938    5.9756   75.6986    5.9811
