# Macroscopic dielectric function obtained with the BS equation.
#  RPA L0 with KS energies and KS wavefunctions     LOCAL FIELD EFFECTS INCLUDED
# RESONANT-ONLY calculation
# Coulomb term constructed with full W(G1,G2)
# Scissor operator energy =  0.8000 [eV]
# Tolerance = -0.0010 0.0000
# npweps  = 113
# npwwfn  = 283
# nbands  = 8
# loband  = 2
# nkibz   = 3
# nkbz    = 8
# Lorentzian broadening =  0.0001 [eV]
# List of q-points for the optical limit:
# q =  0.938821, 0.000000, 0.000000, [Reduced coords] 
# q =  0.000000, 0.938821, 0.000000, [Reduced coords] 
# q =  0.000000, 0.000000, 0.938821, [Reduced coords] 
# q =  0.000000, 0.813043, 0.813043, [Reduced coords] 
# q =  0.813043, 0.000000, 0.813043, [Reduced coords] 
# q =  0.813043, 0.813043, 0.000000, [Reduced coords] 
# omega [eV]    RE(eps(q=1)) IM(eps(q=1) RE(eps(q=2) ) ... 
  0.000   54.7543    0.0000   54.7405    0.0000   54.7505    0.0000   54.7442    0.0000   54.7882    0.0000   54.7862    0.0000
  0.010   54.7548    0.0032   54.7411    0.0034   54.7510    0.0034   54.7448    0.0032   54.7887    0.0036   54.7867    0.0036
  0.020   54.7564    0.0064   54.7427    0.0069   54.7526    0.0069   54.7464    0.0064   54.7903    0.0072   54.7883    0.0072
  0.030   54.7591    0.0096   54.7453    0.0103   54.7553    0.0103   54.7490    0.0096   54.7930    0.0107   54.7910    0.0108
  0.040   54.7628    0.0129   54.7491    0.0138   54.7590    0.0137   54.7528    0.0128   54.7967    0.0143   54.7948    0.0144
  0.050   54.7676    0.0161   54.7539    0.0172   54.7638    0.0172   54.7576    0.0160   54.8016    0.0179   54.7996    0.0179
  0.060   54.7735    0.0193   54.7597    0.0206   54.7697    0.0206   54.7635    0.0192   54.8074    0.0215   54.8054    0.0215
  0.070   54.7804    0.0225   54.7667    0.0241   54.7766    0.0241   54.7704    0.0224   54.8144    0.0251   54.8124    0.0251
  0.080   54.7884    0.0258   54.7747    0.0275   54.7847    0.0275   54.7784    0.0256   54.8224    0.0287   54.8204    0.0287
  0.090   54.7975    0.0290   54.7838    0.0310   54.7937    0.0310   54.7875    0.0288   54.8315    0.0323   54.8295    0.0323
  0.100   54.8077    0.0322   54.7939    0.0345   54.8039    0.0344   54.7976    0.0320   54.8417    0.0359   54.8397    0.0359
  0.110   54.8189    0.0355   54.8051    0.0379   54.8151    0.0379   54.8089    0.0352   54.8529    0.0395   54.8510    0.0395
  0.120   54.8312    0.0387   54.8174    0.0414   54.8274    0.0413   54.8212    0.0384   54.8653    0.0431   54.8633    0.0432
  0.130   54.8446    0.0419   54.8308    0.0449   54.8408    0.0448   54.8346    0.0416   54.8787    0.0467   54.8767    0.0468
  0.140   54.8591    0.0452   54.8453    0.0483   54.8553    0.0483   54.8490    0.0448   54.8932    0.0503   54.8912    0.0504
  0.150   54.8746    0.0484   54.8608    0.0518   54.8708    0.0518   54.8646    0.0481   54.9087    0.0539   54.9067    0.0540
  0.160   54.8912    0.0517   54.8774    0.0553   54.8874    0.0552   54.8812    0.0513   54.9254    0.0576   54.9234    0.0577
  0.170   54.9089    0.0550   54.8951    0.0588   54.9051    0.0587   54.8989    0.0546   54.9431    0.0612   54.9411    0.0613
  0.180   54.9277    0.0582   54.9139    0.0623   54.9239    0.0622   54.9177    0.0578   54.9620    0.0649   54.9600    0.0650
  0.190   54.9476    0.0615   54.9338    0.0658   54.9438    0.0657   54.9376    0.0611   54.9819    0.0685   54.9799    0.0686
  0.200   54.9686    0.0648   54.9547    0.0693   54.9648    0.0692   54.9585    0.0643   55.0029    0.0722   55.0009    0.0723
  0.210   54.9906    0.0681   54.9768    0.0729   54.9868    0.0728   54.9806    0.0676   55.0250    0.0758   55.0230    0.0760
  0.220   55.0138    0.0714   54.9999    0.0764   55.0100    0.0763   55.0037    0.0709   55.0482    0.0795   55.0462    0.0797
  0.230   55.0381    0.0747   55.0242    0.0799   55.0342    0.0798   55.0280    0.0742   55.0725    0.0832   55.0705    0.0834
  0.240   55.0634    0.0780   55.0495    0.0835   55.0596    0.0834   55.0534    0.0775   55.0979    0.0869   55.0959    0.0871
  0.250   55.0899    0.0814   55.0760    0.0870   55.0861    0.0869   55.0798    0.0808   55.1244    0.0906   55.1224    0.0908
  0.260   55.1175    0.0847   55.1036    0.0906   55.1136    0.0905   55.1074    0.0841   55.1521    0.0943   55.1501    0.0945
  0.270   55.1462    0.0881   55.1322    0.0942   55.1423    0.0941   55.1361    0.0874   55.1808    0.0981   55.1788    0.0982
  0.280   55.1760    0.0914   55.1620    0.0978   55.1721    0.0977   55.1659    0.0908   55.2107    0.1018   55.2087    0.1020
  0.290   55.2069    0.0948   55.1929    0.1014   55.2030    0.1013   55.1968    0.0941   55.2417    0.1056   55.2396    0.1058
  0.300   55.2390    0.0982   55.2250    0.1050   55.2351    0.1049   55.2289    0.0975   55.2738    0.1093   55.2718    0.1095
  0.310   55.2722    0.1016   55.2581    0.1086   55.2683    0.1085   55.2621    0.1008   55.3070    0.1131   55.3050    0.1133
  0.320   55.3065    0.1050   55.2924    0.1123   55.3026    0.1122   55.2964    0.1042   55.3414    0.1169   55.3394    0.1171
  0.330   55.3419    0.1084   55.3279    0.1159   55.3380    0.1158   55.3318    0.1076   55.3769    0.1207   55.3749    0.1209
  0.340   55.3785    0.1118   55.3644    0.1196   55.3746    0.1195   55.3684    0.1110   55.4135    0.1245   55.4115    0.1248
  0.350   55.4163    0.1153   55.4022    0.1233   55.4123    0.1232   55.4061    0.1145   55.4514    0.1284   55.4493    0.1286
  0.360   55.4552    0.1188   55.4410    0.1270   55.4512    0.1269   55.4450    0.1179   55.4903    0.1322   55.4883    0.1325
  0.370   55.4952    0.1222   55.4811    0.1307   55.4912    0.1306   55.4851    0.1214   55.5304    0.1361   55.5284    0.1363
  0.380   55.5364    0.1257   55.5222    0.1345   55.5324    0.1343   55.5263    0.1248   55.5717    0.1400   55.5697    0.1402
  0.390   55.5788    0.1292   55.5646    0.1382   55.5748    0.1380   55.5686    0.1283   55.6142    0.1439   55.6121    0.1441
  0.400   55.6223    0.1328   55.6081    0.1420   55.6183    0.1418   55.6122    0.1318   55.6578    0.1478   55.6558    0.1481
  0.410   55.6670    0.1363   55.6528    0.1458   55.6630    0.1456   55.6569    0.1353   55.7026    0.1518   55.7006    0.1520
  0.420   55.7130    0.1399   55.6987    0.1496   55.7089    0.1494   55.7028    0.1389   55.7486    0.1557   55.7465    0.1560
  0.430   55.7600    0.1434   55.7457    0.1534   55.7560    0.1532   55.7499    0.1424   55.7957    0.1597   55.7937    0.1600
  0.440   55.8083    0.1470   55.7940    0.1572   55.8043    0.1570   55.7981    0.1460   55.8441    0.1637   55.8421    0.1640
  0.450   55.8578    0.1506   55.8435    0.1611   55.8538    0.1609   55.8476    0.1496   55.8937    0.1677   55.8917    0.1680
  0.460   55.9085    0.1543   55.8941    0.1650   55.9045    0.1648   55.8983    0.1532   55.9445    0.1718   55.9425    0.1721
  0.470   55.9604    0.1579   55.9460    0.1689   55.9564    0.1687   55.9502    0.1568   55.9965    0.1758   55.9945    0.1761
  0.480   56.0136    0.1616   55.9991    0.1728   56.0095    0.1726   56.0033    0.1604   56.0497    0.1799   56.0477    0.1802
  0.490   56.0680    0.1653   56.0535    0.1767   56.0638    0.1765   56.0577    0.1641   56.1042    0.1840   56.1022    0.1843
  0.500   56.1236    0.1690   56.1090    0.1807   56.1194    0.1805   56.1133    0.1678   56.1599    0.1881   56.1579    0.1885
  0.510   56.1804    0.1727   56.1659    0.1847   56.1763    0.1845   56.1701    0.1715   56.2168    0.1923   56.2148    0.1926
  0.520   56.2385    0.1765   56.2239    0.1887   56.2343    0.1885   56.2282    0.1752   56.2750    0.1965   56.2730    0.1968
  0.530   56.2979    0.1803   56.2832    0.1927   56.2937    0.1925   56.2876    0.1790   56.3345    0.2007   56.3325    0.2010
  0.540   56.3585    0.1841   56.3438    0.1968   56.3543    0.1966   56.3482    0.1828   56.3952    0.2049   56.3932    0.2052
  0.550   56.4204    0.1879   56.4057    0.2009   56.4162    0.2006   56.4101    0.1866   56.4573    0.2092   56.4552    0.2095
  0.560   56.4836    0.1917   56.4688    0.2050   56.4793    0.2047   56.4733    0.1904   56.5206    0.2134   56.5185    0.2138
  0.570   56.5481    0.1956   56.5333    0.2091   56.5438    0.2089   56.5377    0.1943   56.5851    0.2178   56.5831    0.2181
  0.580   56.6138    0.1995   56.5990    0.2133   56.6096    0.2130   56.6035    0.1981   56.6510    0.2221   56.6490    0.2225
  0.590   56.6809    0.2034   56.6661    0.2175   56.6766    0.2172   56.6706    0.2020   56.7183    0.2265   56.7162    0.2268
  0.600   56.7493    0.2074   56.7344    0.2217   56.7450    0.2214   56.7390    0.2060   56.7868    0.2309   56.7847    0.2312
  0.610   56.8191    0.2114   56.8041    0.2259   56.8147    0.2257   56.8087    0.2099   56.8567    0.2353   56.8546    0.2357
  0.620   56.8901    0.2154   56.8752    0.2302   56.8858    0.2300   56.8798    0.2139   56.9279    0.2397   56.9258    0.2401
  0.630   56.9626    0.2194   56.9476    0.2345   56.9582    0.2343   56.9522    0.2179   57.0004    0.2442   56.9984    0.2446
  0.640   57.0364    0.2235   57.0213    0.2389   57.0320    0.2386   57.0259    0.2220   57.0743    0.2488   57.0723    0.2492
  0.650   57.1115    0.2276   57.0964    0.2432   57.1071    0.2430   57.1011    0.2261   57.1496    0.2533   57.1476    0.2537
  0.660   57.1880    0.2317   57.1729    0.2476   57.1836    0.2474   57.1776    0.2302   57.2263    0.2579   57.2242    0.2583
  0.670   57.2660    0.2359   57.2508    0.2521   57.2615    0.2518   57.2555    0.2343   57.3044    0.2625   57.3023    0.2629
  0.680   57.3453    0.2401   57.3301    0.2566   57.3408    0.2563   57.3348    0.2385   57.3838    0.2672   57.3818    0.2676
  0.690   57.4260    0.2443   57.4108    0.2611   57.4215    0.2608   57.4156    0.2427   57.4647    0.2719   57.4627    0.2723
  0.700   57.5082    0.2485   57.4929    0.2656   57.5037    0.2653   57.4977    0.2469   57.5470    0.2766   57.5450    0.2771
  0.710   57.5918    0.2528   57.5764    0.2702   57.5873    0.2699   57.5813    0.2512   57.6308    0.2814   57.6287    0.2818
  0.720   57.6769    0.2572   57.6614    0.2748   57.6723    0.2745   57.6664    0.2555   57.7160    0.2862   57.7140    0.2867
  0.730   57.7634    0.2615   57.7479    0.2795   57.7588    0.2792   57.7529    0.2598   57.8027    0.2910   57.8006    0.2915
  0.740   57.8514    0.2659   57.8358    0.2841   57.8467    0.2838   57.8408    0.2642   57.8908    0.2959   57.8888    0.2964
  0.750   57.9409    0.2704   57.9253    0.2889   57.9362    0.2886   57.9303    0.2686   57.9805    0.3009   57.9784    0.3013
  0.760   58.0318    0.2748   58.0162    0.2937   58.0272    0.2933   58.0213    0.2731   58.0716    0.3058   58.0696    0.3063
  0.770   58.1243    0.2794   58.1086    0.2985   58.1196    0.2981   58.1137    0.2776   58.1643    0.3109   58.1622    0.3113
  0.780   58.2183    0.2839   58.2026    0.3033   58.2136    0.3030   58.2078    0.2821   58.2585    0.3159   58.2564    0.3164
  0.790   58.3139    0.2885   58.2981    0.3082   58.3091    0.3079   58.3033    0.2867   58.3542    0.3210   58.3521    0.3215
  0.800   58.4110    0.2931   58.3951    0.3132   58.4062    0.3128   58.4004    0.2913   58.4515    0.3262   58.4494    0.3267
  0.810   58.5097    0.2978   58.4938    0.3182   58.5049    0.3178   58.4991    0.2960   58.5504    0.3314   58.5483    0.3319
  0.820   58.6100    0.3026   58.5940    0.3232   58.6051    0.3228   58.5993    0.3007   58.6509    0.3366   58.6488    0.3371
  0.830   58.7119    0.3073   58.6958    0.3283   58.7070    0.3279   58.7012    0.3054   58.7529    0.3419   58.7508    0.3424
  0.840   58.8154    0.3121   58.7992    0.3334   58.8105    0.3330   58.8047    0.3102   58.8566    0.3473   58.8545    0.3478
  0.850   58.9205    0.3170   58.9043    0.3386   58.9155    0.3382   58.9098    0.3151   58.9619    0.3527   58.9599    0.3532
  0.860   59.0273    0.3219   59.0110    0.3438   59.0223    0.3434   59.0166    0.3199   59.0689    0.3581   59.0668    0.3586
  0.870   59.1357    0.3268   59.1194    0.3491   59.1307    0.3487   59.1250    0.3249   59.1776    0.3636   59.1755    0.3642
  0.880   59.2458    0.3319   59.2295    0.3544   59.2408    0.3540   59.2351    0.3299   59.2879    0.3692   59.2858    0.3697
  0.890   59.3577    0.3369   59.3412    0.3598   59.3526    0.3594   59.3469    0.3349   59.4000    0.3748   59.3979    0.3753
  0.900   59.4712    0.3420   59.4547    0.3652   59.4661    0.3648   59.4605    0.3400   59.5137    0.3804   59.5116    0.3810
  0.910   59.5865    0.3472   59.5699    0.3707   59.5814    0.3703   59.5757    0.3451   59.6292    0.3862   59.6271    0.3867
  0.920   59.7035    0.3524   59.6869    0.3763   59.6984    0.3759   59.6928    0.3503   59.7465    0.3920   59.7444    0.3925
  0.930   59.8224    0.3576   59.8056    0.3819   59.8172    0.3815   59.8116    0.3556   59.8655    0.3978   59.8634    0.3984
  0.940   59.9430    0.3630   59.9262    0.3875   59.9377    0.3871   59.9322    0.3609   59.9864    0.4037   59.9843    0.4043
  0.950   60.0654    0.3683   60.0485    0.3933   60.0601    0.3929   60.0546    0.3662   60.1090    0.4097   60.1069    0.4103
  0.960   60.1897    0.3738   60.1727    0.3990   60.1843    0.3986   60.1788    0.3716   60.2335    0.4157   60.2314    0.4163
  0.970   60.3158    0.3793   60.2987    0.4049   60.3104    0.4045   60.3049    0.3771   60.3599    0.4218   60.3578    0.4224
  0.980   60.4438    0.3848   60.4267    0.4108   60.4384    0.4104   60.4329    0.3827   60.4881    0.4280   60.4860    0.4286
  0.990   60.5737    0.3904   60.5565    0.4168   60.5682    0.4164   60.5628    0.3883   60.6183    0.4342   60.6162    0.4348
  1.000   60.7055    0.3961   60.6882    0.4228   60.7000    0.4224   60.6946    0.3939   60.7504    0.4405   60.7482    0.4411
  1.010   60.8392    0.4019   60.8219    0.4289   60.8337    0.4285   60.8283    0.3997   60.8844    0.4469   60.8823    0.4475
  1.020   60.9750    0.4077   60.9575    0.4351   60.9694    0.4347   60.9640    0.4055   61.0204    0.4533   61.0182    0.4540
  1.030   61.1127    0.4136   61.0951    0.4414   61.1071    0.4409   61.1017    0.4113   61.1583    0.4599   61.1562    0.4605
  1.040   61.2524    0.4195   61.2348    0.4477   61.2467    0.4473   61.2414    0.4172   61.2983    0.4665   61.2962    0.4671
  1.050   61.3942    0.4255   61.3764    0.4541   61.3885    0.4537   61.3832    0.4233   61.4404    0.4731   61.4382    0.4738
  1.060   61.5380    0.4316   61.5202    0.4606   61.5322    0.4601   61.5270    0.4293   61.5845    0.4799   61.5824    0.4805
  1.070   61.6839    0.4378   61.6660    0.4671   61.6781    0.4667   61.6729    0.4355   61.7307    0.4867   61.7286    0.4874
  1.080   61.8319    0.4440   61.8139    0.4737   61.8261    0.4733   61.8209    0.4417   61.8790    0.4936   61.8769    0.4943
  1.090   61.9821    0.4503   61.9640    0.4805   61.9762    0.4800   61.9711    0.4480   62.0295    0.5006   62.0273    0.5013
  1.100   62.1344    0.4567   62.1162    0.4873   62.1285    0.4868   62.1234    0.4544   62.1821    0.5077   62.1800    0.5084
  1.110   62.2890    0.4632   62.2707    0.4941   62.2830    0.4937   62.2779    0.4608   62.3370    0.5149   62.3348    0.5156
  1.120   62.4457    0.4697   62.4273    0.5011   62.4397    0.5006   62.4347    0.4674   62.4940    0.5222   62.4919    0.5228
  1.130   62.6047    0.4764   62.5862    0.5081   62.5987    0.5077   62.5937    0.4740   62.6534    0.5295   62.6512    0.5302
  1.140   62.7660    0.4831   62.7474    0.5153   62.7599    0.5148   62.7549    0.4807   62.8150    0.5370   62.8129    0.5377
  1.150   62.9297    0.4899   62.9110    0.5225   62.9235    0.5220   62.9185    0.4875   62.9789    0.5445   62.9768    0.5452
  1.160   63.0956    0.4968   63.0768    0.5298   63.0894    0.5294   63.0845    0.4944   63.1452    0.5522   63.1431    0.5529
  1.170   63.2640    0.5038   63.2450    0.5373   63.2577    0.5368   63.2528    0.5014   63.3139    0.5599   63.3118    0.5606
  1.180   63.4347    0.5109   63.4157    0.5448   63.4284    0.5443   63.4236    0.5085   63.4850    0.5677   63.4829    0.5685
  1.190   63.6079    0.5180   63.5888    0.5524   63.6015    0.5519   63.5967    0.5156   63.6586    0.5757   63.6564    0.5764
  1.200   63.7836    0.5253   63.7643    0.5601   63.7771    0.5596   63.7724    0.5229   63.8346    0.5838   63.8325    0.5845
  1.210   63.9618    0.5327   63.9424    0.5679   63.9552    0.5674   63.9506    0.5303   64.0132    0.5919   64.0110    0.5927
  1.220   64.1425    0.5401   64.1230    0.5759   64.1359    0.5754   64.1313    0.5377   64.1943    0.6002   64.1921    0.6009
  1.230   64.3258    0.5477   64.3062    0.5839   64.3192    0.5834   64.3146    0.5453   64.3780    0.6086   64.3758    0.6093
  1.240   64.5118    0.5554   64.4920    0.5921   64.5051    0.5916   64.5006    0.5530   64.5643    0.6171   64.5621    0.6179
  1.250   64.7004    0.5632   64.6805    0.6003   64.6936    0.5998   64.6891    0.5608   64.7533    0.6257   64.7511    0.6265
  1.260   64.8917    0.5711   64.8717    0.6087   64.8848    0.6082   64.8804    0.5687   64.9450    0.6345   64.9428    0.6352
  1.270   65.0857    0.5791   65.0656    0.6172   65.0788    0.6167   65.0745    0.5767   65.1395    0.6434   65.1373    0.6441
  1.280   65.2826    0.5872   65.2623    0.6258   65.2756    0.6253   65.2713    0.5848   65.3367    0.6524   65.3345    0.6531
  1.290   65.4822    0.5955   65.4618    0.6346   65.4752    0.6341   65.4709    0.5930   65.5368    0.6615   65.5346    0.6623
  1.300   65.6847    0.6039   65.6642    0.6435   65.6776    0.6429   65.6734    0.6014   65.7397    0.6708   65.7375    0.6715
  1.310   65.8902    0.6123   65.8695    0.6525   65.8830    0.6519   65.8789    0.6099   65.9456    0.6802   65.9434    0.6809
  1.320   66.0985    0.6210   66.0777    0.6616   66.0913    0.6611   66.0872    0.6185   66.1544    0.6897   66.1522    0.6905
  1.330   66.3099    0.6297   66.2890    0.6709   66.3026    0.6704   66.2986    0.6273   66.3662    0.6994   66.3641    0.7002
  1.340   66.5243    0.6386   66.5033    0.6803   66.5169    0.6798   66.5130    0.6362   66.5811    0.7092   66.5789    0.7100
  1.350   66.7419    0.6476   66.7206    0.6899   66.7344    0.6893   66.7305    0.6452   66.7991    0.7192   66.7969    0.7200
  1.360   66.9625    0.6568   66.9411    0.6996   66.9550    0.6990   66.9512    0.6544   67.0203    0.7293   67.0181    0.7302
  1.370   67.1864    0.6661   67.1649    0.7094   67.1787    0.7089   67.1751    0.6637   67.2446    0.7396   67.2424    0.7404
  1.380   67.4135    0.6755   67.3918    0.7194   67.4058    0.7189   67.4022    0.6731   67.4722    0.7501   67.4700    0.7509
  1.390   67.6439    0.6851   67.6221    0.7296   67.6361    0.7290   67.6326    0.6827   67.7031    0.7607   67.7009    0.7615
  1.400   67.8777    0.6949   67.8557    0.7399   67.8698    0.7394   67.8663    0.6925   67.9374    0.7715   67.9352    0.7723
  1.410   68.1149    0.7048   68.0927    0.7504   68.1069    0.7499   68.1035    0.7024   68.1751    0.7825   68.1729    0.7833
  1.420   68.3555    0.7148   68.3331    0.7611   68.3474    0.7605   68.3442    0.7125   68.4163    0.7936   68.4141    0.7944
  1.430   68.5997    0.7251   68.5771    0.7719   68.5915    0.7714   68.5883    0.7228   68.6610    0.8049   68.6588    0.8057
  1.440   68.8474    0.7355   68.8247    0.7829   68.8392    0.7824   68.8361    0.7332   68.9093    0.8164   68.9071    0.8172
  1.450   69.0988    0.7461   69.0760    0.7941   69.0905    0.7936   69.0875    0.7438   69.1612    0.8281   69.1591    0.8289
  1.460   69.3540    0.7568   69.3309    0.8055   69.3455    0.8049   69.3426    0.7545   69.4169    0.8400   69.4148    0.8408
  1.470   69.6128    0.7677   69.5896    0.8171   69.6043    0.8165   69.6015    0.7655   69.6764    0.8521   69.6742    0.8529
  1.480   69.8756    0.7789   69.8521    0.8288   69.8669    0.8283   69.8642    0.7766   69.9397    0.8644   69.9375    0.8652
