# Macroscopic dielectric function obtained with the BS equation.
#  RPA L0 with KS energies and KS wavefunctions     LOCAL FIELD EFFECTS INCLUDED
# RESONANT-ONLY calculation
# Coulomb term constructed with full W(G1,G2)
# Scissor operator energy =  0.8000 [eV]
# Tolerance = -0.0010 0.0000
# npweps  = 113
# npwwfn  = 259
# nbands  = 8
# loband  = 2
# nkibz   = 3
# nkbz    = 8
# Lorentzian broadening =  0.0001 [eV]
# List of q-points for the optical limit:
# q =  0.938821, 0.000000, 0.000000, [Reduced coords] 
# q =  0.000000, 0.938821, 0.000000, [Reduced coords] 
# q =  0.000000, 0.000000, 0.938821, [Reduced coords] 
# q =  0.000000, 0.813043, 0.813043, [Reduced coords] 
# q =  0.813043, 0.000000, 0.813043, [Reduced coords] 
# q =  0.813043, 0.813043, 0.000000, [Reduced coords] 
# omega [eV]    RE(eps(q=1)) IM(eps(q=1) RE(eps(q=2) ) ... 
  0.000   55.7576    0.0000   55.7036    0.0000   55.7149    0.0000   55.7205    0.0000   55.8117    0.0000   55.8197    0.0000
  0.010   55.7582    0.0087   55.7042    0.0093   55.7155    0.0093   55.7211    0.0087   55.8122    0.0094   55.8203    0.0094
  0.020   55.7599    0.0174   55.7058    0.0186   55.7171    0.0185   55.7227    0.0174   55.8139    0.0188   55.8220    0.0188
  0.030   55.7627    0.0261   55.7086    0.0278   55.7199    0.0278   55.7256    0.0260   55.8167    0.0282   55.8248    0.0283
  0.040   55.7666    0.0348   55.7126    0.0371   55.7239    0.0371   55.7295    0.0347   55.8207    0.0376   55.8287    0.0377
  0.050   55.7717    0.0435   55.7176    0.0464   55.7289    0.0464   55.7346    0.0434   55.8258    0.0470   55.8338    0.0471
  0.060   55.7779    0.0523   55.7238    0.0557   55.7351    0.0556   55.7408    0.0521   55.8320    0.0565   55.8400    0.0566
  0.070   55.7852    0.0610   55.7311    0.0650   55.7424    0.0649   55.7481    0.0608   55.8393    0.0659   55.8474    0.0660
  0.080   55.7937    0.0697   55.7395    0.0743   55.7509    0.0742   55.7565    0.0695   55.8478    0.0753   55.8559    0.0755
  0.090   55.8033    0.0785   55.7491    0.0837   55.7604    0.0835   55.7661    0.0782   55.8574    0.0848   55.8655    0.0850
  0.100   55.8140    0.0872   55.7598    0.0930   55.7711    0.0929   55.7768    0.0870   55.8682    0.0942   55.8762    0.0944
  0.110   55.8258    0.0960   55.7716    0.1023   55.7829    0.1022   55.7886    0.0957   55.8800    0.1037   55.8881    0.1039
  0.120   55.8388    0.1048   55.7846    0.1117   55.7959    0.1115   55.8016    0.1045   55.8931    0.1132   55.9011    0.1134
  0.130   55.8529    0.1136   55.7986    0.1210   55.8100    0.1209   55.8157    0.1132   55.9072    0.1227   55.9153    0.1229
  0.140   55.8682    0.1224   55.8139    0.1304   55.8252    0.1303   55.8310    0.1220   55.9225    0.1322   55.9306    0.1325
  0.150   55.8846    0.1312   55.8302    0.1398   55.8415    0.1396   55.8474    0.1308   55.9389    0.1417   55.9470    0.1420
  0.160   55.9021    0.1400   55.8477    0.1492   55.8590    0.1491   55.8649    0.1396   55.9565    0.1512   55.9646    0.1516
  0.170   55.9208    0.1489   55.8663    0.1587   55.8777    0.1585   55.8836    0.1484   55.9753    0.1608   55.9833    0.1611
  0.180   55.9406    0.1577   55.8861    0.1681   55.8975    0.1679   55.9034    0.1573   55.9951    0.1704   56.0032    0.1707
  0.190   55.9616    0.1666   55.9070    0.1776   55.9184    0.1774   55.9243    0.1661   56.0162    0.1800   56.0243    0.1804
  0.200   55.9837    0.1755   55.9291    0.1871   55.9405    0.1869   55.9465    0.1750   56.0384    0.1896   56.0464    0.1900
  0.210   56.0070    0.1845   55.9523    0.1966   55.9637    0.1964   55.9697    0.1839   56.0617    0.1993   56.0698    0.1997
  0.220   56.0315    0.1934   55.9767    0.2062   55.9881    0.2059   55.9942    0.1929   56.0862    0.2089   56.0943    0.2094
  0.230   56.0571    0.2024   56.0022    0.2157   56.0136    0.2155   56.0197    0.2018   56.1119    0.2186   56.1200    0.2191
  0.240   56.0838    0.2114   56.0289    0.2253   56.0403    0.2250   56.0465    0.2108   56.1387    0.2283   56.1468    0.2288
  0.250   56.1118    0.2204   56.0568    0.2350   56.0682    0.2347   56.0744    0.2198   56.1668    0.2381   56.1748    0.2386
  0.260   56.1409    0.2295   56.0858    0.2446   56.0972    0.2443   56.1035    0.2289   56.1959    0.2479   56.2040    0.2484
  0.270   56.1712    0.2386   56.1160    0.2543   56.1275    0.2540   56.1338    0.2379   56.2263    0.2577   56.2344    0.2583
  0.280   56.2026    0.2477   56.1474    0.2640   56.1588    0.2637   56.1652    0.2470   56.2579    0.2675   56.2660    0.2681
  0.290   56.2353    0.2569   56.1800    0.2738   56.1914    0.2734   56.1978    0.2561   56.2906    0.2774   56.2987    0.2780
  0.300   56.2691    0.2660   56.2137    0.2835   56.2252    0.2832   56.2316    0.2653   56.3245    0.2873   56.3326    0.2880
  0.310   56.3041    0.2753   56.2487    0.2934   56.2601    0.2930   56.2666    0.2745   56.3596    0.2973   56.3677    0.2979
  0.320   56.3404    0.2845   56.2848    0.3032   56.2963    0.3028   56.3028    0.2837   56.3960    0.3073   56.4041    0.3079
  0.330   56.3778    0.2938   56.3221    0.3131   56.3336    0.3127   56.3402    0.2930   56.4335    0.3173   56.4416    0.3180
  0.340   56.4164    0.3031   56.3606    0.3230   56.3721    0.3226   56.3789    0.3023   56.4722    0.3274   56.4803    0.3281
  0.350   56.4563    0.3125   56.4004    0.3330   56.4119    0.3326   56.4187    0.3116   56.5122    0.3375   56.5203    0.3382
  0.360   56.4973    0.3219   56.4413    0.3430   56.4528    0.3426   56.4597    0.3210   56.5533    0.3476   56.5615    0.3484
  0.370   56.5396    0.3313   56.4835    0.3531   56.4950    0.3526   56.5020    0.3304   56.5957    0.3578   56.6039    0.3586
  0.380   56.5831    0.3408   56.5269    0.3632   56.5384    0.3627   56.5454    0.3399   56.6394    0.3681   56.6475    0.3689
  0.390   56.6279    0.3504   56.5715    0.3733   56.5831    0.3729   56.5902    0.3494   56.6842    0.3784   56.6924    0.3792
  0.400   56.6738    0.3599   56.6174    0.3835   56.6289    0.3831   56.6361    0.3589   56.7303    0.3887   56.7385    0.3895
  0.410   56.7211    0.3696   56.6645    0.3938   56.6761    0.3933   56.6833    0.3685   56.7777    0.3991   56.7859    0.4000
  0.420   56.7696    0.3792   56.7128    0.4041   56.7244    0.4036   56.7318    0.3782   56.8263    0.4096   56.8345    0.4104
  0.430   56.8193    0.3889   56.7624    0.4144   56.7740    0.4139   56.7815    0.3879   56.8762    0.4200   56.8844    0.4209
  0.440   56.8703    0.3987   56.8133    0.4248   56.8249    0.4243   56.8325    0.3976   56.9273    0.4306   56.9355    0.4315
  0.450   56.9226    0.4085   56.8654    0.4353   56.8771    0.4348   56.8847    0.4074   56.9798    0.4412   56.9879    0.4421
  0.460   56.9761    0.4184   56.9189    0.4458   56.9305    0.4453   56.9382    0.4173   57.0335    0.4519   57.0417    0.4528
  0.470   57.0310    0.4284   56.9736    0.4564   56.9852    0.4558   56.9930    0.4272   57.0885    0.4626   57.0967    0.4636
  0.480   57.0871    0.4383   57.0295    0.4670   57.0412    0.4664   57.0491    0.4372   57.1448    0.4734   57.1530    0.4744
  0.490   57.1446    0.4484   57.0868    0.4777   57.0985    0.4771   57.1066    0.4472   57.2024    0.4842   57.2106    0.4852
  0.500   57.2033    0.4585   57.1454    0.4885   57.1572    0.4879   57.1653    0.4573   57.2613    0.4951   57.2695    0.4962
  0.510   57.2634    0.4687   57.2053    0.4993   57.2171    0.4987   57.2253    0.4674   57.3215    0.5061   57.3297    0.5072
  0.520   57.3248    0.4789   57.2666    0.5102   57.2783    0.5096   57.2867    0.4776   57.3831    0.5171   57.3913    0.5182
  0.530   57.3875    0.4892   57.3291    0.5211   57.3409    0.5205   57.3494    0.4879   57.4460    0.5283   57.4542    0.5294
  0.540   57.4516    0.4996   57.3930    0.5322   57.4049    0.5315   57.4134    0.4983   57.5102    0.5394   57.5185    0.5406
  0.550   57.5171    0.5100   57.4583    0.5433   57.4701    0.5426   57.4788    0.5087   57.5759    0.5507   57.5841    0.5518
  0.560   57.5839    0.5205   57.5249    0.5544   57.5368    0.5538   57.5456    0.5192   57.6428    0.5620   57.6511    0.5632
  0.570   57.6520    0.5311   57.5929    0.5657   57.6048    0.5650   57.6137    0.5297   57.7112    0.5734   57.7195    0.5746
  0.580   57.7216    0.5417   57.6623    0.5770   57.6741    0.5763   57.6832    0.5403   57.7809    0.5849   57.7892    0.5861
  0.590   57.7925    0.5524   57.7330    0.5884   57.7449    0.5877   57.7541    0.5510   57.8521    0.5965   57.8604    0.5977
  0.600   57.8649    0.5632   57.8052    0.5999   57.8171    0.5992   57.8264    0.5618   57.9246    0.6081   57.9329    0.6094
  0.610   57.9386    0.5741   57.8787    0.6114   57.8907    0.6107   57.9001    0.5727   57.9986    0.6199   58.0069    0.6211
  0.620   58.0138    0.5851   57.9537    0.6231   57.9657    0.6223   57.9752    0.5836   58.0740    0.6317   58.0823    0.6330
  0.630   58.0904    0.5961   58.0301    0.6348   58.0421    0.6341   58.0518    0.5946   58.1508    0.6436   58.1592    0.6449
  0.640   58.1685    0.6072   58.1079    0.6466   58.1199    0.6459   58.1298    0.6057   58.2291    0.6556   58.2374    0.6569
  0.650   58.2480    0.6184   58.1872    0.6585   58.1993    0.6578   58.2093    0.6169   58.3088    0.6677   58.3172    0.6690
  0.660   58.3290    0.6297   58.2680    0.6705   58.2800    0.6697   58.2902    0.6281   58.3900    0.6798   58.3984    0.6812
  0.670   58.4114    0.6411   58.3502    0.6826   58.3623    0.6818   58.3726    0.6395   58.4727    0.6921   58.4811    0.6935
  0.680   58.4954    0.6526   58.4339    0.6948   58.4461    0.6940   58.4565    0.6510   58.5569    0.7045   58.5653    0.7059
  0.690   58.5809    0.6641   58.5192    0.7071   58.5313    0.7063   58.5420    0.6625   58.6426    0.7170   58.6510    0.7184
  0.700   58.6678    0.6758   58.6059    0.7195   58.6181    0.7187   58.6289    0.6742   58.7298    0.7295   58.7383    0.7310
  0.710   58.7563    0.6875   58.6942    0.7320   58.7063    0.7311   58.7173    0.6859   58.8186    0.7422   58.8270    0.7437
  0.720   58.8464    0.6994   58.7840    0.7446   58.7962    0.7437   58.8073    0.6977   58.9089    0.7550   58.9173    0.7565
  0.730   58.9380    0.7114   58.8753    0.7573   58.8876    0.7564   58.8989    0.7097   59.0008    0.7679   59.0092    0.7694
  0.740   59.0312    0.7234   58.9682    0.7701   58.9805    0.7692   58.9920    0.7217   59.0942    0.7809   59.1027    0.7824
  0.750   59.1260    0.7356   59.0627    0.7831   59.0750    0.7821   59.0867    0.7339   59.1892    0.7940   59.1977    0.7956
  0.760   59.2223    0.7479   59.1588    0.7961   59.1712    0.7952   59.1831    0.7461   59.2859    0.8073   59.2944    0.8089
  0.770   59.3203    0.7603   59.2565    0.8093   59.2689    0.8083   59.2810    0.7585   59.3841    0.8206   59.3927    0.8222
  0.780   59.4199    0.7728   59.3559    0.8225   59.3682    0.8216   59.3805    0.7710   59.4840    0.8341   59.4926    0.8357
  0.790   59.5212    0.7854   59.4568    0.8359   59.4693    0.8350   59.4817    0.7836   59.5856    0.8477   59.5941    0.8494
  0.800   59.6241    0.7981   59.5595    0.8495   59.5719    0.8485   59.5846    0.7963   59.6888    0.8615   59.6974    0.8631
  0.810   59.7287    0.8110   59.6638    0.8631   59.6762    0.8621   59.6891    0.8092   59.7937    0.8753   59.8023    0.8770
  0.820   59.8350    0.8240   59.7698    0.8769   59.7823    0.8759   59.7954    0.8222   59.9003    0.8893   59.9089    0.8910
  0.830   59.9430    0.8371   59.8774    0.8908   59.8900    0.8898   59.9033    0.8353   60.0086    0.9035   60.0172    0.9052
  0.840   60.0527    0.8503   59.9869    0.9049   59.9994    0.9039   60.0130    0.8485   60.1187    0.9177   60.1273    0.9195
  0.850   60.1642    0.8637   60.0980    0.9191   60.1106    0.9180   60.1244    0.8618   60.2305    0.9321   60.2391    0.9339
  0.860   60.2775    0.8772   60.2110    0.9334   60.2236    0.9324   60.2376    0.8753   60.3441    0.9467   60.3527    0.9485
  0.870   60.3925    0.8909   60.3257    0.9479   60.3383    0.9468   60.3526    0.8890   60.4594    0.9614   60.4681    0.9632
  0.880   60.5093    0.9047   60.4421    0.9625   60.4549    0.9614   60.4693    0.9028   60.5766    0.9763   60.5853    0.9781
  0.890   60.6280    0.9186   60.5605    0.9773   60.5732    0.9762   60.5879    0.9167   60.6956    0.9913   60.7043    0.9931
  0.900   60.7485    0.9327   60.6806    0.9922   60.6934    0.9911   60.7084    0.9307   60.8164    1.0065   60.8252    1.0083
  0.910   60.8708    0.9469   60.8026    1.0073   60.8154    1.0062   60.8307    0.9450   60.9392    1.0218   60.9479    1.0237
  0.920   60.9951    0.9613   60.9265    1.0225   60.9393    1.0214   60.9548    0.9593   61.0638    1.0373   61.0725    1.0392
  0.930   61.1212    0.9758   61.0523    1.0380   61.0652    1.0368   61.0809    0.9739   61.1903    1.0529   61.1990    1.0549
  0.940   61.2493    0.9905   61.1800    1.0535   61.1929    1.0524   61.2089    0.9886   61.3187    1.0688   61.3275    1.0707
  0.950   61.3793    1.0054   61.3096    1.0693   61.3226    1.0681   61.3389    1.0034   61.4491    1.0848   61.4579    1.0867
  0.960   61.5113    1.0204   61.4412    1.0852   61.4542    1.0841   61.4708    1.0184   61.5815    1.1010   61.5903    1.1030
  0.970   61.6453    1.0356   61.5748    1.1013   61.5878    1.1002   61.6047    1.0336   61.7159    1.1173   61.7247    1.1194
  0.980   61.7813    1.0510   61.7103    1.1176   61.7234    1.1164   61.7406    1.0490   61.8523    1.1339   61.8611    1.1359
  0.990   61.9193    1.0666   61.8480    1.1341   61.8611    1.1329   61.8786    1.0645   61.9907    1.1507   61.9996    1.1527
  1.000   62.0594    1.0823   61.9876    1.1508   62.0008    1.1496   62.0186    1.0803   62.1312    1.1676   62.1401    1.1697
  1.010   62.2016    1.0982   62.1294    1.1676   62.1426    1.1664   62.1607    1.0962   62.2738    1.1847   62.2827    1.1868
  1.020   62.3459    1.1143   62.2733    1.1847   62.2865    1.1835   62.3049    1.1123   62.4185    1.2021   62.4275    1.2042
  1.030   62.4923    1.1306   62.4193    1.2020   62.4326    1.2007   62.4513    1.1286   62.5654    1.2196   62.5744    1.2218
  1.040   62.6409    1.1471   62.5674    1.2194   62.5808    1.2182   62.5998    1.1451   62.7145    1.2374   62.7235    1.2396
  1.050   62.7917    1.1638   62.7178    1.2371   62.7312    1.2359   62.7506    1.1618   62.8657    1.2554   62.8747    1.2576
  1.060   62.9447    1.1808   62.8703    1.2550   62.8838    1.2537   62.9035    1.1787   63.0192    1.2736   63.0282    1.2758
  1.070   63.1000    1.1979   63.0251    1.2731   63.0386    1.2719   63.0587    1.1958   63.1750    1.2920   63.1840    1.2942
  1.080   63.2576    1.2152   63.1822    1.2915   63.1957    1.2902   63.2162    1.2132   63.3330    1.3107   63.3421    1.3129
  1.090   63.4174    1.2328   63.3416    1.3101   63.3552    1.3088   63.3760    1.2307   63.4933    1.3296   63.5024    1.3318
  1.100   63.5796    1.2506   63.5033    1.3289   63.5169    1.3276   63.5381    1.2485   63.6560    1.3487   63.6652    1.3510
  1.110   63.7442    1.2686   63.6674    1.3480   63.6810    1.3466   63.7026    1.2665   63.8211    1.3681   63.8303    1.3704
  1.120   63.9112    1.2868   63.8338    1.3673   63.8475    1.3659   63.8695    1.2848   63.9886    1.3878   63.9978    1.3901
  1.130   64.0806    1.3053   64.0027    1.3868   64.0165    1.3855   64.0389    1.3033   64.1585    1.4077   64.1677    1.4100
  1.140   64.2525    1.3241   64.1741    1.4066   64.1879    1.4053   64.2107    1.3220   64.3309    1.4278   64.3402    1.4302
  1.150   64.4268    1.3431   64.3479    1.4267   64.3618    1.4254   64.3850    1.3410   64.5059    1.4483   64.5151    1.4506
  1.160   64.6038    1.3623   64.5243    1.4471   64.5382    1.4457   64.5618    1.3603   64.6833    1.4690   64.6926    1.4714
  1.170   64.7833    1.3818   64.7032    1.4677   64.7172    1.4663   64.7412    1.3798   64.8634    1.4900   64.8727    1.4924
  1.180   64.9654    1.4016   64.8847    1.4886   64.8988    1.4872   64.9233    1.3996   65.0461    1.5113   65.0554    1.5137
  1.190   65.1501    1.4217   65.0689    1.5098   65.0830    1.5084   65.1079    1.4197   65.2314    1.5328   65.2407    1.5353
  1.200   65.3375    1.4420   65.2557    1.5313   65.2699    1.5299   65.2953    1.4400   65.4194    1.5547   65.4288    1.5572
  1.210   65.5277    1.4626   65.4453    1.5531   65.4595    1.5517   65.4854    1.4607   65.6102    1.5769   65.6196    1.5794
  1.220   65.7206    1.4836   65.6376    1.5752   65.6519    1.5738   65.6782    1.4816   65.8037    1.5994   65.8131    1.6019
  1.230   65.9163    1.5048   65.8327    1.5976   65.8470    1.5962   65.8739    1.5029   66.0000    1.6222   66.0095    1.6248
  1.240   66.1149    1.5263   66.0307    1.6204   66.0450    1.6189   66.0724    1.5244   66.1993    1.6454   66.2088    1.6479
  1.250   66.3164    1.5482   66.2315    1.6435   66.2459    1.6420   66.2738    1.5463   66.4014    1.6689   66.4109    1.6714
  1.260   66.5208    1.5704   66.4352    1.6669   66.4497    1.6654   66.4781    1.5685   66.6064    1.6927   66.6160    1.6953
  1.270   66.7282    1.5929   66.6419    1.6906   66.6565    1.6891   66.6854    1.5910   66.8144    1.7169   66.8240    1.7195
  1.280   66.9385    1.6157   66.8516    1.7148   66.8662    1.7132   66.8957    1.6139   67.0255    1.7415   67.0352    1.7441
  1.290   67.1520    1.6389   67.0644    1.7392   67.0791    1.7377   67.1091    1.6371   67.2397    1.7664   67.2493    1.7691
  1.300   67.3686    1.6625   67.2803    1.7641   67.2950    1.7625   67.3256    1.6607   67.4570    1.7917   67.4667    1.7944
  1.310   67.5884    1.6864   67.4993    1.7893   67.5141    1.7878   67.5453    1.6846   67.6774    1.8174   67.6872    1.8201
  1.320   67.8113    1.7107   67.7216    1.8149   67.7364    1.8134   67.7682    1.7089   67.9011    1.8435   67.9109    1.8462
  1.330   68.0376    1.7353   67.9471    1.8409   67.9620    1.8394   67.9944    1.7336   68.1281    1.8701   68.1379    1.8727
  1.340   68.2671    1.7604   68.1759    1.8674   68.1909    1.8658   68.2239    1.7587   68.3584    1.8970   68.3683    1.8997
  1.350   68.5001    1.7858   68.4080    1.8942   68.4231    1.8926   68.4567    1.7842   68.5921    1.9243   68.6020    1.9270
  1.360   68.7364    1.8117   68.6436    1.9215   68.6588    1.9199   68.6930    1.8101   68.8293    1.9521   68.8392    1.9549
  1.370   68.9763    1.8380   68.8827    1.9492   68.8979    1.9476   68.9328    1.8364   69.0699    1.9804   69.0799    1.9831
  1.380   69.2197    1.8647   69.1253    1.9774   69.1405    1.9757   69.1762    1.8632   69.3142    2.0091   69.3242    2.0118
  1.390   69.4667    1.8918   69.3714    2.0060   69.3868    2.0043   69.4231    1.8904   69.5620    2.0382   69.5720    2.0410
  1.400   69.7174    1.9194   69.6213    2.0351   69.6367    2.0334   69.6738    1.9180   69.8135    2.0679   69.8236    2.0707
  1.410   69.9718    1.9475   69.8748    2.0646   69.8903    2.0630   69.9281    1.9461   70.0688    2.0980   70.0789    2.1009
  1.420   70.2300    1.9761   70.1322    2.0947   70.1478    2.0931   70.1863    1.9747   70.3279    2.1287   70.3381    2.1315
  1.430   70.4921    2.0051   70.3934    2.1253   70.4090    2.1236   70.4483    2.0038   70.5909    2.1599   70.6011    2.1627
  1.440   70.7581    2.0346   70.6584    2.1564   70.6742    2.1547   70.7142    2.0334   70.8578    2.1916   70.8680    2.1944
  1.450   71.0281    2.0647   70.9275    2.1880   70.9433    2.1863   70.9842    2.0635   71.1287    2.2239   71.1390    2.2267
  1.460   71.3022    2.0952   71.2006    2.2202   71.2165    2.2185   71.2582    2.0942   71.4037    2.2567   71.4141    2.2596
  1.470   71.5804    2.1263   71.4779    2.2529   71.4939    2.2512   71.5364    2.1253   71.6829    2.2901   71.6933    2.2930
  1.480   71.8629    2.1580   71.7594    2.2863   71.7754    2.2846   71.8187    2.1571   71.9663    2.3241   71.9768    2.3270
