# Macroscopic dielectric function obtained with the BS equation.
#  RPA L0 with KS energies and KS wavefunctions     LOCAL FIELD EFFECTS INCLUDED
# RESONANT-ONLY calculation
# Coulomb term constructed with full W(G1,G2)
# Scissor operator energy =  0.8000 [eV]
# Tolerance = -0.0010 0.0000
# npweps  = 113
# npwwfn  = 283
# nbands  = 8
# loband  = 2
# nkibz   = 3
# nkbz    = 8
# Lorentzian broadening =  0.0001 [eV]
# List of q-points for the optical limit:
# q =  0.938821, 0.000000, 0.000000, [Reduced coords] 
# q =  0.000000, 0.938821, 0.000000, [Reduced coords] 
# q =  0.000000, 0.000000, 0.938821, [Reduced coords] 
# q =  0.000000, 0.813043, 0.813043, [Reduced coords] 
# q =  0.813043, 0.000000, 0.813043, [Reduced coords] 
# q =  0.813043, 0.813043, 0.000000, [Reduced coords] 
# omega [eV]    RE(eps(q=1)) IM(eps(q=1) RE(eps(q=2) ) ... 
  0.000   57.5835    0.0000   57.4299    0.0000   57.4444    0.0000   57.5297    0.0000   57.6666    0.0000   57.6568    0.0000
  0.010   57.5841    0.0215   57.4305    0.0229   57.4450    0.0228   57.5303    0.0215   57.6672    0.0231   57.6574    0.0231
  0.020   57.5859    0.0430   57.4323    0.0457   57.4468    0.0457   57.5321    0.0430   57.6691    0.0462   57.6592    0.0463
  0.030   57.5890    0.0645   57.4354    0.0686   57.4499    0.0685   57.5352    0.0645   57.6722    0.0693   57.6623    0.0694
  0.040   57.5934    0.0861   57.4397    0.0915   57.4542    0.0913   57.5395    0.0860   57.6765    0.0924   57.6667    0.0926
  0.050   57.5989    0.1076   57.4452    0.1143   57.4597    0.1142   57.5451    0.1075   57.6821    0.1156   57.6723    0.1158
  0.060   57.6057    0.1292   57.4520    0.1372   57.4665    0.1371   57.5519    0.1290   57.6889    0.1387   57.6791    0.1389
  0.070   57.6138    0.1507   57.4599    0.1602   57.4745    0.1600   57.5599    0.1506   57.6970    0.1619   57.6872    0.1621
  0.080   57.6231    0.1723   57.4691    0.1831   57.4837    0.1829   57.5692    0.1721   57.7063    0.1851   57.6965    0.1854
  0.090   57.6336    0.1939   57.4796    0.2061   57.4941    0.2058   57.5797    0.1937   57.7169    0.2083   57.7070    0.2086
  0.100   57.6454    0.2156   57.4913    0.2290   57.5058    0.2288   57.5915    0.2153   57.7287    0.2315   57.7189    0.2319
  0.110   57.6584    0.2373   57.5042    0.2521   57.5187    0.2518   57.6045    0.2370   57.7417    0.2548   57.7319    0.2552
  0.120   57.6726    0.2590   57.5183    0.2751   57.5329    0.2748   57.6188    0.2587   57.7560    0.2781   57.7462    0.2785
  0.130   57.6882    0.2807   57.5337    0.2982   57.5483    0.2979   57.6342    0.2804   57.7716    0.3015   57.7618    0.3019
  0.140   57.7049    0.3025   57.5503    0.3213   57.5649    0.3210   57.6510    0.3021   57.7884    0.3248   57.7786    0.3253
  0.150   57.7229    0.3243   57.5682    0.3445   57.5828    0.3441   57.6690    0.3239   57.8065    0.3483   57.7967    0.3488
  0.160   57.7422    0.3461   57.5873    0.3677   57.6019    0.3673   57.6882    0.3458   57.8258    0.3717   57.8160    0.3723
  0.170   57.7627    0.3680   57.6077    0.3910   57.6222    0.3906   57.7088    0.3676   57.8464    0.3953   57.8366    0.3959
  0.180   57.7845    0.3900   57.6293    0.4143   57.6439    0.4139   57.7305    0.3896   57.8683    0.4188   57.8585    0.4195
  0.190   57.8076    0.4120   57.6521    0.4377   57.6667    0.4372   57.7536    0.4115   57.8914    0.4425   57.8816    0.4431
  0.200   57.8319    0.4341   57.6763    0.4611   57.6909    0.4606   57.7779    0.4336   57.9158    0.4662   57.9060    0.4669
  0.210   57.8575    0.4562   57.7017    0.4846   57.7163    0.4841   57.8034    0.4557   57.9415    0.4899   57.9316    0.4906
  0.220   57.8844    0.4784   57.7283    0.5082   57.7429    0.5076   57.8303    0.4778   57.9684    0.5137   57.9586    0.5145
  0.230   57.9125    0.5006   57.7562    0.5318   57.7708    0.5312   57.8584    0.5001   57.9967    0.5376   57.9868    0.5384
  0.240   57.9419    0.5229   57.7854    0.5555   57.8000    0.5549   57.8878    0.5224   58.0262    0.5616   58.0163    0.5624
  0.250   57.9727    0.5453   57.8158    0.5792   57.8305    0.5786   57.9184    0.5447   58.0570    0.5856   58.0471    0.5865
  0.260   58.0047    0.5678   57.8476    0.6031   57.8622    0.6024   57.9504    0.5671   58.0891    0.6097   58.0792    0.6106
  0.270   58.0380    0.5903   57.8806    0.6270   57.8953    0.6263   57.9837    0.5897   58.1225    0.6339   58.1126    0.6349
  0.280   58.0725    0.6129   57.9149    0.6510   57.9296    0.6503   58.0182    0.6123   58.1572    0.6582   58.1473    0.6592
  0.290   58.1084    0.6356   57.9505    0.6751   57.9652    0.6744   58.0541    0.6349   58.1932    0.6826   58.1833    0.6836
  0.300   58.1457    0.6584   57.9874    0.6993   58.0021    0.6985   58.0913    0.6577   58.2306    0.7070   58.2207    0.7081
  0.310   58.1842    0.6813   58.0256    0.7236   58.0403    0.7228   58.1297    0.6806   58.2692    0.7316   58.2593    0.7327
  0.320   58.2240    0.7043   58.0651    0.7480   58.0798    0.7472   58.1695    0.7035   58.3092    0.7563   58.2993    0.7574
  0.330   58.2652    0.7273   58.1059    0.7724   58.1206    0.7716   58.2107    0.7266   58.3505    0.7810   58.3406    0.7822
  0.340   58.3077    0.7505   58.1481    0.7970   58.1628    0.7962   58.2531    0.7497   58.3931    0.8059   58.3832    0.8071
  0.350   58.3515    0.7738   58.1915    0.8217   58.2063    0.8209   58.2969    0.7730   58.4370    0.8309   58.4271    0.8321
  0.360   58.3967    0.7972   58.2363    0.8465   58.2511    0.8456   58.3420    0.7963   58.4824    0.8560   58.4724    0.8572
  0.370   58.4432    0.8206   58.2824    0.8715   58.2972    0.8705   58.3885    0.8198   58.5290    0.8812   58.5191    0.8825
  0.380   58.4911    0.8443   58.3299    0.8965   58.3447    0.8956   58.4363    0.8434   58.5771    0.9065   58.5671    0.9079
  0.390   58.5403    0.8680   58.3787    0.9217   58.3935    0.9207   58.4855    0.8671   58.6265    0.9320   58.6165    0.9334
  0.400   58.5909    0.8918   58.4289    0.9470   58.4437    0.9460   58.5360    0.8909   58.6772    0.9576   58.6673    0.9590
  0.410   58.6429    0.9158   58.4805    0.9724   58.4953    0.9714   58.5880    0.9149   58.7294    0.9833   58.7194    0.9847
  0.420   58.6962    0.9399   58.5334    0.9980   58.5482    0.9969   58.6413    0.9389   58.7829    1.0092   58.7729    1.0106
  0.430   58.7510    0.9641   58.5877    1.0236   58.6025    1.0226   58.6960    0.9632   58.8378    1.0352   58.8279    1.0367
  0.440   58.8072    0.9885   58.6434    1.0495   58.6582    1.0484   58.7521    0.9875   58.8942    1.0613   58.8842    1.0629
  0.450   58.8647    1.0130   58.7004    1.0755   58.7153    1.0743   58.8096    1.0120   58.9519    1.0876   58.9419    1.0892
  0.460   58.9237    1.0377   58.7589    1.1016   58.7738    1.1005   58.8685    1.0366   59.0111    1.1141   59.0011    1.1157
  0.470   58.9841    1.0625   58.8188    1.1279   58.8337    1.1267   58.9288    1.0614   59.0717    1.1407   59.0617    1.1423
  0.480   59.0459    1.0874   58.8801    1.1544   58.8950    1.1532   58.9906    1.0864   59.1337    1.1675   59.1237    1.1692
  0.490   59.1092    1.1125   58.9428    1.1810   58.9578    1.1797   59.0538    1.1115   59.1972    1.1944   59.1872    1.1961
  0.500   59.1739    1.1378   59.0070    1.2078   59.0220    1.2065   59.1185    1.1367   59.2621    1.2216   59.2521    1.2233
  0.510   59.2401    1.1632   59.0726    1.2347   59.0876    1.2334   59.1846    1.1621   59.3285    1.2488   59.3185    1.2506
  0.520   59.3078    1.1888   59.1397    1.2619   59.1547    1.2605   59.2522    1.1877   59.3964    1.2763   59.3863    1.2781
  0.530   59.3769    1.2146   59.2082    1.2892   59.2233    1.2878   59.3212    1.2135   59.4657    1.3040   59.4557    1.3058
  0.540   59.4475    1.2406   59.2783    1.3167   59.2933    1.3153   59.3918    1.2394   59.5366    1.3318   59.5265    1.3337
  0.550   59.5197    1.2667   59.3498    1.3444   59.3648    1.3430   59.4639    1.2656   59.6089    1.3599   59.5989    1.3618
  0.560   59.5933    1.2931   59.4228    1.3722   59.4379    1.3708   59.5374    1.2919   59.6828    1.3881   59.6727    1.3901
  0.570   59.6684    1.3196   59.4973    1.4003   59.5124    1.3989   59.6125    1.3184   59.7582    1.4166   59.7481    1.4185
  0.580   59.7451    1.3463   59.5733    1.4286   59.5884    1.4272   59.6891    1.3451   59.8352    1.4452   59.8251    1.4472
  0.590   59.8234    1.3732   59.6509    1.4571   59.6660    1.4556   59.7673    1.3720   59.9136    1.4741   59.9035    1.4761
  0.600   59.9032    1.4003   59.7300    1.4858   59.7452    1.4843   59.8470    1.3991   59.9937    1.5032   59.9836    1.5053
  0.610   59.9845    1.4277   59.8106    1.5148   59.8258    1.5132   59.9283    1.4264   60.0753    1.5325   60.0652    1.5346
  0.620   60.0675    1.4552   59.8928    1.5439   59.9081    1.5424   60.0111    1.4540   60.1585    1.5620   60.1484    1.5642
  0.630   60.1520    1.4830   59.9766    1.5733   59.9919    1.5717   60.0956    1.4817   60.2433    1.5918   60.2332    1.5940
  0.640   60.2382    1.5110   60.0620    1.6030   60.0773    1.6013   60.1817    1.5097   60.3298    1.6219   60.3196    1.6241
  0.650   60.3259    1.5392   60.1490    1.6328   60.1643    1.6312   60.2693    1.5380   60.4178    1.6521   60.4077    1.6544
  0.660   60.4153    1.5677   60.2376    1.6629   60.2530    1.6613   60.3587    1.5664   60.5075    1.6826   60.4973    1.6849
  0.670   60.5064    1.5964   60.3279    1.6933   60.3433    1.6916   60.4496    1.5951   60.5988    1.7134   60.5887    1.7157
  0.680   60.5991    1.6254   60.4198    1.7239   60.4352    1.7222   60.5422    1.6241   60.6918    1.7445   60.6817    1.7468
  0.690   60.6935    1.6546   60.5133    1.7548   60.5287    1.7531   60.6365    1.6533   60.7865    1.7758   60.7763    1.7782
  0.700   60.7895    1.6841   60.6086    1.7860   60.6240    1.7842   60.7325    1.6828   60.8829    1.8074   60.8727    1.8098
  0.710   60.8873    1.7138   60.7055    1.8174   60.7209    1.8156   60.8302    1.7125   60.9810    1.8393   60.9708    1.8417
  0.720   60.9868    1.7438   60.8041    1.8492   60.8196    1.8473   60.9296    1.7425   61.0808    1.8714   61.0706    1.8739
  0.730   61.0881    1.7741   60.9044    1.8812   60.9200    1.8793   61.0308    1.7728   61.1824    1.9039   61.1722    1.9064
  0.740   61.1911    1.8047   61.0065    1.9135   61.0221    1.9116   61.1337    1.8034   61.2857    1.9367   61.2755    1.9392
  0.750   61.2958    1.8355   61.1103    1.9461   61.1259    1.9442   61.2384    1.8342   61.3909    1.9698   61.3806    1.9723
  0.760   61.4024    1.8667   61.2159    1.9790   61.2316    1.9771   61.3448    1.8654   61.4978    2.0031   61.4875    2.0057
  0.770   61.5108    1.8981   61.3233    2.0123   61.3390    2.0103   61.4531    1.8969   61.6065    2.0369   61.5962    2.0395
  0.780   61.6209    1.9299   61.4325    2.0458   61.4482    2.0438   61.5632    1.9286   61.7170    2.0709   61.7067    2.0736
  0.790   61.7330    1.9620   61.5435    2.0797   61.5593    2.0777   61.6751    1.9607   61.8294    2.1053   61.8191    2.1080
  0.800   61.8469    1.9944   61.6564    2.1140   61.6721    2.1119   61.7889    1.9932   61.9437    2.1400   61.9334    2.1427
  0.810   61.9626    2.0272   61.7711    2.1485   61.7869    2.1465   61.9046    2.0259   62.0598    2.1751   62.0495    2.1779
  0.820   62.0803    2.0603   61.8877    2.1835   61.9035    2.1814   62.0221    2.0590   62.1779    2.2106   62.1675    2.2133
  0.830   62.1999    2.0937   62.0062    2.2187   62.0220    2.2166   62.1416    2.0924   62.2978    2.2464   62.2875    2.2492
  0.840   62.3214    2.1275   62.1266    2.2544   62.1425    2.2523   62.2630    2.1262   62.4198    2.2826   62.4094    2.2854
  0.850   62.4449    2.1616   62.2490    2.2904   62.2649    2.2883   62.3864    2.1604   62.5436    2.3192   62.5333    2.3220
  0.860   62.5703    2.1962   62.3733    2.3269   62.3892    2.3247   62.5118    2.1949   62.6695    2.3562   62.6591    2.3590
  0.870   62.6978    2.2311   62.4996    2.3637   62.5155    2.3615   62.6391    2.2299   62.7974    2.3935   62.7870    2.3965
  0.880   62.8273    2.2664   62.6279    2.4009   62.6439    2.3987   62.7685    2.2652   62.9273    2.4313   62.9169    2.4343
  0.890   62.9588    2.3020   62.7582    2.4385   62.7742    2.4363   62.8999    2.3009   63.0593    2.4695   63.0488    2.4725
  0.900   63.0924    2.3381   62.8905    2.4766   62.9066    2.4743   63.0334    2.3370   63.1933    2.5082   63.1829    2.5112
  0.910   63.2281    2.3746   63.0250    2.5151   63.0411    2.5127   63.1690    2.3735   63.3295    2.5473   63.3190    2.5503
  0.920   63.3660    2.4116   63.1615    2.5540   63.1777    2.5516   63.3067    2.4104   63.4677    2.5868   63.4573    2.5899
  0.930   63.5059    2.4489   63.3001    2.5934   63.3163    2.5910   63.4466    2.4478   63.6082    2.6268   63.5977    2.6299
  0.940   63.6481    2.4867   63.4409    2.6332   63.4572    2.6308   63.5886    2.4856   63.7507    2.6673   63.7403    2.6704
  0.950   63.7924    2.5250   63.5839    2.6735   63.6002    2.6711   63.7328    2.5239   63.8955    2.7082   63.8850    2.7114
  0.960   63.9389    2.5637   63.7291    2.7143   63.7454    2.7118   63.8792    2.5627   64.0426    2.7497   64.0321    2.7529
  0.970   64.0877    2.6029   63.8764    2.7555   63.8928    2.7530   64.0279    2.6019   64.1918    2.7916   64.1813    2.7948
  0.980   64.2388    2.6425   64.0261    2.7973   64.0425    2.7948   64.1789    2.6416   64.3434    2.8341   64.3329    2.8373
  0.990   64.3922    2.6827   64.1780    2.8396   64.1944    2.8370   64.3321    2.6818   64.4973    2.8771   64.4867    2.8803
  1.000   64.5479    2.7233   64.3322    2.8824   64.3486    2.8798   64.4877    2.7225   64.6535    2.9206   64.6429    2.9239
  1.010   64.7059    2.7645   64.4887    2.9257   64.5052    2.9231   64.6456    2.7637   64.8121    2.9647   64.8015    2.9680
  1.020   64.8664    2.8062   64.6476    2.9696   64.6642    2.9670   64.8060    2.8054   64.9731    3.0093   64.9625    3.0126
  1.030   65.0293    2.8485   64.8089    3.0141   64.8255    3.0114   64.9687    2.8477   65.1365    3.0545   65.1259    3.0579
  1.040   65.1946    2.8913   64.9726    3.0591   64.9893    3.0564   65.1339    2.8906   65.3023    3.1003   65.2917    3.1037
  1.050   65.3624    2.9346   65.1388    3.1047   65.1555    3.1020   65.3016    2.9340   65.4707    3.1467   65.4601    3.1501
  1.060   65.5327    2.9786   65.3075    3.1509   65.3242    3.1482   65.4718    2.9780   65.6416    3.1937   65.6310    3.1971
  1.070   65.7056    3.0231   65.4787    3.1977   65.4954    3.1950   65.6446    3.0226   65.8151    3.2413   65.8044    3.2448
  1.080   65.8811    3.0683   65.6524    3.2452   65.6692    3.2424   65.8200    3.0677   65.9911    3.2896   65.9804    3.2931
  1.090   66.0592    3.1140   65.8287    3.2932   65.8456    3.2904   65.9979    3.1135   66.1698    3.3386   66.1591    3.3421
  1.100   66.2399    3.1604   66.0077    3.3420   66.0246    3.3392   66.1786    3.1600   66.3511    3.3882   66.3404    3.3917
  1.110   66.4234    3.2074   66.1893    3.3914   66.2063    3.3885   66.3619    3.2071   66.5352    3.4385   66.5245    3.4420
  1.120   66.6096    3.2551   66.3736    3.4415   66.3906    3.4386   66.5479    3.2548   66.7220    3.4895   66.7113    3.4931
  1.130   66.7985    3.3035   66.5607    3.4923   66.5777    3.4894   66.7368    3.3033   66.9115    3.5412   66.9008    3.5448
  1.140   66.9903    3.3525   66.7505    3.5438   66.7676    3.5409   66.9284    3.3524   67.1039    3.5937   67.0932    3.5973
  1.150   67.1849    3.4023   66.9431    3.5961   66.9603    3.5931   67.1229    3.4023   67.2992    3.6469   67.2884    3.6505
  1.160   67.3824    3.4528   67.1386    3.6491   67.1558    3.6461   67.3203    3.4528   67.4973    3.7009   67.4866    3.7046
  1.170   67.5828    3.5041   67.3370    3.7028   67.3543    3.6998   67.5206    3.5042   67.6984    3.7557   67.6877    3.7594
  1.180   67.7862    3.5561   67.5383    3.7574   67.5557    3.7544   67.7239    3.5563   67.9025    3.8113   67.8917    3.8150
  1.190   67.9926    3.6088   67.7427    3.8128   67.7600    3.8097   67.9302    3.6091   68.1096    3.8677   68.0988    3.8714
  1.200   68.2021    3.6624   67.9500    3.8689   67.9674    3.8659   68.1396    3.6628   68.3198    3.9249   68.3090    3.9287
  1.210   68.4148    3.7168   68.1604    3.9260   68.1779    3.9229   68.3520    3.7173   68.5331    3.9831   68.5223    3.9869
  1.220   68.6305    3.7720   68.3739    3.9839   68.3914    3.9808   68.5677    3.7726   68.7496    4.0421   68.7388    4.0459
  1.230   68.8495    3.8281   68.5906    4.0427   68.6082    4.0395   68.7865    3.8288   68.9693    4.1021   68.9585    4.1059
  1.240   69.0717    3.8851   68.8105    4.1024   68.8281    4.0992   69.0087    3.8859   69.1923    4.1629   69.1814    4.1668
  1.250   69.2973    3.9429   69.0337    4.1630   69.0514    4.1598   69.2341    3.9439   69.4186    4.2248   69.4077    4.2286
  1.260   69.5262    4.0017   69.2602    4.2246   69.2779    4.2213   69.4629    4.0028   69.6482    4.2876   69.6373    4.2914
  1.270   69.7585    4.0614   69.4900    4.2871   69.5078    4.2839   69.6951    4.0626   69.8813    4.3514   69.8704    4.3553
  1.280   69.9943    4.1221   69.7233    4.3507   69.7411    4.3474   69.9307    4.1234   70.1179    4.4162   70.1070    4.4201
  1.290   70.2336    4.1838   69.9600    4.4152   69.9779    4.4119   70.1699    4.1852   70.3580    4.4821   70.3471    4.4860
  1.300   70.4765    4.2465   70.2003    4.4809   70.2182    4.4775   70.4127    4.2481   70.6016    4.5491   70.5908    4.5530
  1.310   70.7230    4.3103   70.4441    4.5476   70.4622    4.5442   70.6591    4.3120   70.8490    4.6172   70.8381    4.6211
  1.320   70.9733    4.3751   70.6916    4.6154   70.7097    4.6120   70.9093    4.3769   71.1000    4.6864   71.0891    4.6903
  1.330   71.2272    4.4410   70.9429    4.6843   70.9610    4.6809   71.1632    4.4430   71.3549    4.7568   71.3440    4.7607
  1.340   71.4851    4.5080   71.1979    4.7544   71.2161    4.7510   71.4209    4.5102   71.6135    4.8283   71.6026    4.8323
  1.350   71.7468    4.5761   71.4567    4.8257   71.4749    4.8222   71.6825    4.5785   71.8761    4.9011   71.8652    4.9051
  1.360   72.0124    4.6455   71.7194    4.8982   71.7377    4.8947   71.9480    4.6480   72.1427    4.9752   72.1317    4.9792
  1.370   72.2821    4.7161   71.9861    4.9719   72.0045    4.9684   72.2176    4.7188   72.4132    5.0505   72.4023    5.0545
  1.380   72.5559    4.7879   72.2568    5.0469   72.2752    5.0434   72.4913    4.7908   72.6879    5.1272   72.6770    5.1312
  1.390   72.8339    4.8609   72.5316    5.1233   72.5501    5.1197   72.7692    4.8641   72.9668    5.2052   72.9558    5.2092
  1.400   73.1161    4.9353   72.8106    5.2010   72.8292    5.1974   73.0513    4.9387   73.2499    5.2846   73.2390    5.2886
  1.410   73.4026    5.0111   73.0939    5.2800   73.1125    5.2764   73.3377    5.0146   73.5373    5.3655   73.5264    5.3695
  1.420   73.6935    5.0882   73.3814    5.3605   73.4001    5.3569   73.6285    5.0919   73.8292    5.4478   73.8182    5.4518
  1.430   73.9888    5.1667   73.6734    5.4425   73.6922    5.4388   73.9237    5.1707   74.1255    5.5316   74.1146    5.5356
  1.440   74.2887    5.2467   73.9698    5.5259   73.9887    5.5223   74.2236    5.2509   74.4264    5.6169   74.4155    5.6209
  1.450   74.5933    5.3281   74.2709    5.6109   74.2898    5.6072   74.5280    5.3326   74.7319    5.7039   74.7210    5.7079
  1.460   74.9026    5.4111   74.5765    5.6975   74.5955    5.6938   74.8372    5.4159   75.0422    5.7924   75.0313    5.7964
  1.470   75.2166    5.4957   74.8869    5.7857   74.9059    5.7820   75.1512    5.5008   75.3573    5.8827   75.3464    5.8867
  1.480   75.5356    5.5819   75.2021    5.8755   75.2212    5.8718   75.4702    5.5872   75.6773    5.9747   75.6664    5.9787
