# Macroscopic dielectric function obtained with the BS equation.
#  RPA L0 with KS energies and KS wavefunctions     LOCAL FIELD EFFECTS INCLUDED
# RESONANT-ONLY calculation
# Coulomb term constructed with full W(G1,G2)
# Scissor operator energy =  0.8000 [eV]
# Tolerance = -0.0010 0.0000
# npweps  = 113
# npwwfn  = 259
# nbands  = 8
# loband  = 2
# nkibz   = 3
# nkbz    = 8
# Lorentzian broadening =  0.0001 [eV]
# List of q-points for the optical limit:
# q =  0.938821, 0.000000, 0.000000, [Reduced coords] 
# q =  0.000000, 0.938821, 0.000000, [Reduced coords] 
# q =  0.000000, 0.000000, 0.938821, [Reduced coords] 
# q =  0.000000, 0.813043, 0.813043, [Reduced coords] 
# q =  0.813043, 0.000000, 0.813043, [Reduced coords] 
# q =  0.813043, 0.813043, 0.000000, [Reduced coords] 
# omega [eV]    RE(eps(q=1)) IM(eps(q=1) RE(eps(q=2) ) ... 
  0.000   54.7930    0.0000   54.7796    0.0000   54.7896    0.0000   54.7705    0.0000   54.8274    0.0000   54.8375    0.0000
  0.010   54.7936    0.0032   54.7802    0.0034   54.7901    0.0034   54.7710    0.0032   54.8279    0.0036   54.8381    0.0036
  0.020   54.7952    0.0064   54.7818    0.0069   54.7917    0.0069   54.7726    0.0064   54.8295    0.0072   54.8397    0.0072
  0.030   54.7978    0.0097   54.7844    0.0103   54.7944    0.0103   54.7753    0.0096   54.8322    0.0107   54.8424    0.0108
  0.040   54.8016    0.0129   54.7882    0.0138   54.7981    0.0138   54.7790    0.0128   54.8360    0.0143   54.8461    0.0144
  0.050   54.8064    0.0161   54.7930    0.0172   54.8029    0.0172   54.7838    0.0160   54.8408    0.0179   54.8509    0.0180
  0.060   54.8122    0.0193   54.7988    0.0207   54.8088    0.0206   54.7897    0.0192   54.8467    0.0215   54.8568    0.0216
  0.070   54.8192    0.0225   54.8058    0.0241   54.8157    0.0241   54.7967    0.0224   54.8536    0.0251   54.8638    0.0252
  0.080   54.8272    0.0258   54.8138    0.0276   54.8238    0.0275   54.8047    0.0256   54.8616    0.0287   54.8718    0.0288
  0.090   54.8363    0.0290   54.8229    0.0310   54.8328    0.0310   54.8138    0.0288   54.8708    0.0323   54.8809    0.0324
  0.100   54.8465    0.0322   54.8330    0.0345   54.8430    0.0344   54.8239    0.0320   54.8809    0.0359   54.8911    0.0360
  0.110   54.8577    0.0355   54.8443    0.0379   54.8542    0.0379   54.8352    0.0352   54.8922    0.0395   54.9023    0.0396
  0.120   54.8700    0.0387   54.8566    0.0414   54.8665    0.0414   54.8475    0.0384   54.9045    0.0431   54.9147    0.0432
  0.130   54.8834    0.0420   54.8700    0.0449   54.8799    0.0448   54.8608    0.0416   54.9179    0.0467   54.9281    0.0468
  0.140   54.8979    0.0452   54.8844    0.0484   54.8944    0.0483   54.8753    0.0449   54.9324    0.0503   54.9426    0.0504
  0.150   54.9134    0.0485   54.9000    0.0518   54.9099    0.0518   54.8909    0.0481   54.9480    0.0540   54.9582    0.0541
  0.160   54.9301    0.0517   54.9166    0.0553   54.9266    0.0553   54.9075    0.0513   54.9647    0.0576   54.9748    0.0577
  0.170   54.9478    0.0550   54.9343    0.0588   54.9443    0.0588   54.9252    0.0546   54.9824    0.0612   54.9926    0.0614
  0.180   54.9666    0.0583   54.9531    0.0623   54.9631    0.0623   54.9440    0.0578   55.0013    0.0649   55.0114    0.0650
  0.190   54.9865    0.0615   54.9730    0.0658   54.9830    0.0658   54.9639    0.0611   55.0212    0.0685   55.0314    0.0687
  0.200   55.0075    0.0648   54.9939    0.0694   55.0040    0.0693   54.9849    0.0643   55.0422    0.0722   55.0524    0.0724
  0.210   55.0295    0.0681   55.0160    0.0729   55.0260    0.0728   55.0069    0.0676   55.0643    0.0759   55.0745    0.0760
  0.220   55.0527    0.0714   55.0392    0.0764   55.0492    0.0763   55.0301    0.0709   55.0876    0.0796   55.0977    0.0797
  0.230   55.0770    0.0748   55.0634    0.0800   55.0735    0.0799   55.0544    0.0742   55.1119    0.0832   55.1221    0.0834
  0.240   55.1024    0.0781   55.0888    0.0835   55.0988    0.0834   55.0797    0.0775   55.1373    0.0869   55.1475    0.0871
  0.250   55.1289    0.0814   55.1153    0.0871   55.1253    0.0870   55.1062    0.0808   55.1638    0.0907   55.1740    0.0908
  0.260   55.1565    0.0848   55.1429    0.0907   55.1529    0.0906   55.1338    0.0841   55.1915    0.0944   55.2017    0.0946
  0.270   55.1852    0.0881   55.1716    0.0942   55.1816    0.0941   55.1625    0.0874   55.2202    0.0981   55.2304    0.0983
  0.280   55.2150    0.0915   55.2014    0.0978   55.2114    0.0977   55.1923    0.0908   55.2501    0.1019   55.2603    0.1021
  0.290   55.2460    0.0948   55.2323    0.1014   55.2424    0.1013   55.2233    0.0941   55.2811    0.1056   55.2913    0.1058
  0.300   55.2780    0.0982   55.2644    0.1051   55.2745    0.1049   55.2553    0.0975   55.3133    0.1094   55.3235    0.1096
  0.310   55.3112    0.1016   55.2975    0.1087   55.3076    0.1086   55.2885    0.1009   55.3465    0.1132   55.3567    0.1134
  0.320   55.3456    0.1050   55.3319    0.1123   55.3420    0.1122   55.3228    0.1042   55.3809    0.1170   55.3911    0.1172
  0.330   55.3810    0.1085   55.3673    0.1160   55.3774    0.1159   55.3583    0.1076   55.4164    0.1208   55.4267    0.1210
  0.340   55.4177    0.1119   55.4039    0.1197   55.4140    0.1195   55.3949    0.1111   55.4531    0.1246   55.4634    0.1249
  0.350   55.4554    0.1153   55.4416    0.1234   55.4518    0.1232   55.4326    0.1145   55.4910    0.1284   55.5012    0.1287
  0.360   55.4943    0.1188   55.4805    0.1271   55.4907    0.1269   55.4715    0.1179   55.5299    0.1323   55.5402    0.1326
  0.370   55.5344    0.1223   55.5206    0.1308   55.5307    0.1306   55.5116    0.1214   55.5701    0.1362   55.5803    0.1364
  0.380   55.5756    0.1258   55.5618    0.1345   55.5720    0.1344   55.5528    0.1248   55.6114    0.1401   55.6216    0.1403
  0.390   55.6180    0.1293   55.6042    0.1383   55.6144    0.1381   55.5952    0.1283   55.6538    0.1440   55.6641    0.1443
  0.400   55.6616    0.1328   55.6477    0.1420   55.6579    0.1419   55.6387    0.1318   55.6975    0.1479   55.7078    0.1482
  0.410   55.7063    0.1364   55.6924    0.1458   55.7027    0.1457   55.6835    0.1353   55.7423    0.1518   55.7526    0.1521
  0.420   55.7523    0.1399   55.7383    0.1496   55.7486    0.1495   55.7294    0.1389   55.7883    0.1558   55.7986    0.1561
  0.430   55.7994    0.1435   55.7854    0.1535   55.7957    0.1533   55.7765    0.1424   55.8355    0.1598   55.8458    0.1601
  0.440   55.8477    0.1471   55.8337    0.1573   55.8440    0.1571   55.8248    0.1460   55.8839    0.1638   55.8943    0.1641
  0.450   55.8972    0.1507   55.8832    0.1612   55.8935    0.1610   55.8743    0.1496   55.9336    0.1678   55.9439    0.1681
  0.460   55.9480    0.1543   55.9339    0.1650   55.9442    0.1648   55.9250    0.1532   55.9844    0.1718   55.9947    0.1722
  0.470   55.9999    0.1580   55.9858    0.1689   55.9961    0.1687   55.9769    0.1568   56.0364    0.1759   56.0468    0.1762
  0.480   56.0531    0.1617   56.0390    0.1729   56.0493    0.1727   56.0301    0.1605   56.0897    0.1800   56.1000    0.1803
  0.490   56.1075    0.1653   56.0933    0.1768   56.1037    0.1766   56.0845    0.1641   56.1442    0.1841   56.1545    0.1845
  0.500   56.1631    0.1691   56.1489    0.1808   56.1593    0.1806   56.1401    0.1678   56.1999    0.1882   56.2103    0.1886
  0.510   56.2200    0.1728   56.2058    0.1848   56.2162    0.1846   56.1969    0.1715   56.2569    0.1924   56.2673    0.1928
  0.520   56.2781    0.1766   56.2639    0.1888   56.2743    0.1886   56.2551    0.1753   56.3151    0.1966   56.3255    0.1969
  0.530   56.3375    0.1803   56.3232    0.1928   56.3337    0.1926   56.3144    0.1790   56.3746    0.2008   56.3850    0.2012
  0.540   56.3982    0.1841   56.3839    0.1969   56.3943    0.1967   56.3751    0.1828   56.4354    0.2050   56.4458    0.2054
  0.550   56.4601    0.1880   56.4458    0.2010   56.4562    0.2007   56.4370    0.1866   56.4974    0.2092   56.5079    0.2097
  0.560   56.5233    0.1918   56.5089    0.2051   56.5194    0.2048   56.5002    0.1904   56.5608    0.2135   56.5712    0.2139
  0.570   56.5879    0.1957   56.5734    0.2092   56.5839    0.2090   56.5647    0.1943   56.6254    0.2178   56.6358    0.2183
  0.580   56.6537    0.1996   56.6392    0.2134   56.6497    0.2131   56.6305    0.1982   56.6913    0.2222   56.7018    0.2226
  0.590   56.7208    0.2035   56.7063    0.2176   56.7168    0.2173   56.6976    0.2021   56.7586    0.2266   56.7690    0.2270
  0.600   56.7893    0.2075   56.7747    0.2218   56.7853    0.2216   56.7660    0.2060   56.8272    0.2310   56.8376    0.2314
  0.610   56.8590    0.2115   56.8444    0.2261   56.8550    0.2258   56.8358    0.2100   56.8971    0.2354   56.9075    0.2358
  0.620   56.9301    0.2155   56.9155    0.2303   56.9261    0.2301   56.9068    0.2140   56.9683    0.2398   56.9788    0.2403
  0.630   57.0026    0.2195   56.9879    0.2346   56.9986    0.2344   56.9793    0.2180   57.0409    0.2443   57.0514    0.2448
  0.640   57.0764    0.2236   57.0617    0.2390   57.0724    0.2387   57.0531    0.2220   57.1149    0.2489   57.1254    0.2493
  0.650   57.1516    0.2277   57.1369    0.2434   57.1476    0.2431   57.1283    0.2261   57.1902    0.2534   57.2007    0.2539
  0.660   57.2282    0.2318   57.2134    0.2478   57.2241    0.2475   57.2048    0.2302   57.2669    0.2580   57.2775    0.2585
  0.670   57.3062    0.2360   57.2913    0.2522   57.3021    0.2519   57.2828    0.2344   57.3451    0.2626   57.3556    0.2631
  0.680   57.3856    0.2402   57.3707    0.2567   57.3814    0.2564   57.3621    0.2385   57.4246    0.2673   57.4351    0.2678
  0.690   57.4664    0.2444   57.4514    0.2612   57.4622    0.2609   57.4429    0.2427   57.5055    0.2720   57.5161    0.2725
  0.700   57.5486    0.2486   57.5336    0.2657   57.5444    0.2654   57.5251    0.2470   57.5879    0.2767   57.5985    0.2773
  0.710   57.6322    0.2529   57.6172    0.2703   57.6280    0.2700   57.6087    0.2512   57.6717    0.2815   57.6823    0.2820
  0.720   57.7173    0.2573   57.7022    0.2749   57.7131    0.2746   57.6938    0.2555   57.7569    0.2863   57.7675    0.2869
  0.730   57.8039    0.2616   57.7887    0.2796   57.7996    0.2793   57.7803    0.2599   57.8437    0.2912   57.8543    0.2917
  0.740   57.8919    0.2660   57.8767    0.2843   57.8876    0.2840   57.8683    0.2643   57.9319    0.2961   57.9425    0.2966
  0.750   57.9815    0.2705   57.9662    0.2890   57.9771    0.2887   57.9578    0.2687   58.0216    0.3010   58.0322    0.3016
  0.760   58.0725    0.2750   58.0572    0.2938   58.0681    0.2935   58.0488    0.2731   58.1128    0.3060   58.1234    0.3065
  0.770   58.1650    0.2795   58.1497    0.2986   58.1607    0.2983   58.1413    0.2776   58.2055    0.3110   58.2162    0.3116
  0.780   58.2591    0.2840   58.2437    0.3035   58.2547    0.3031   58.2354    0.2822   58.2997    0.3161   58.3104    0.3166
  0.790   58.3547    0.2886   58.3392    0.3084   58.3503    0.3080   58.3309    0.2867   58.3955    0.3212   58.4062    0.3217
  0.800   58.4519    0.2933   58.4364    0.3133   58.4474    0.3130   58.4281    0.2914   58.4929    0.3263   58.5036    0.3269
  0.810   58.5506    0.2979   58.5350    0.3183   58.5462    0.3180   58.5268    0.2960   58.5918    0.3315   58.6025    0.3321
  0.820   58.6510    0.3027   58.6353    0.3233   58.6465    0.3230   58.6271    0.3007   58.6923    0.3368   58.7031    0.3374
  0.830   58.7529    0.3074   58.7372    0.3284   58.7484    0.3281   58.7290    0.3055   58.7944    0.3421   58.8052    0.3427
  0.840   58.8565    0.3123   58.8407    0.3336   58.8519    0.3332   58.8325    0.3103   58.8982    0.3474   58.9090    0.3480
  0.850   58.9617    0.3171   58.9458    0.3387   58.9570    0.3384   58.9377    0.3151   59.0036    0.3528   59.0144    0.3534
  0.860   59.0685    0.3220   59.0526    0.3440   59.0639    0.3436   59.0445    0.3200   59.1106    0.3583   59.1215    0.3589
  0.870   59.1770    0.3270   59.1610    0.3492   59.1723    0.3489   59.1529    0.3249   59.2193    0.3638   59.2302    0.3644
  0.880   59.2872    0.3320   59.2711    0.3546   59.2825    0.3542   59.2631    0.3299   59.3297    0.3693   59.3406    0.3700
  0.890   59.3991    0.3370   59.3830    0.3600   59.3944    0.3596   59.3750    0.3350   59.4418    0.3749   59.4527    0.3756
  0.900   59.5127    0.3421   59.4965    0.3654   59.5079    0.3650   59.4885    0.3400   59.5557    0.3806   59.5666    0.3813
  0.910   59.6281    0.3473   59.6118    0.3709   59.6232    0.3705   59.6039    0.3452   59.6712    0.3863   59.6822    0.3870
  0.920   59.7452    0.3525   59.7288    0.3764   59.7403    0.3761   59.7209    0.3504   59.7886    0.3921   59.7995    0.3928
  0.930   59.8641    0.3578   59.8476    0.3821   59.8592    0.3817   59.8398    0.3556   59.9077    0.3980   59.9187    0.3987
  0.940   59.9847    0.3631   59.9683    0.3877   59.9798    0.3873   59.9604    0.3609   60.0286    0.4039   60.0396    0.4046
  0.950   60.1072    0.3685   60.0907    0.3935   60.1023    0.3931   60.0829    0.3663   60.1513    0.4098   60.1623    0.4106
  0.960   60.2316    0.3739   60.2149    0.3992   60.2266    0.3988   60.2072    0.3717   60.2759    0.4159   60.2869    0.4166
  0.970   60.3578    0.3794   60.3410    0.4051   60.3527    0.4047   60.3333    0.3772   60.4023    0.4220   60.4134    0.4227
  0.980   60.4858    0.3850   60.4690    0.4110   60.4807    0.4106   60.4613    0.3827   60.5307    0.4281   60.5417    0.4289
  0.990   60.6158    0.3906   60.5989    0.4170   60.6107    0.4166   60.5913    0.3883   60.6609    0.4344   60.6720    0.4351
  1.000   60.7477    0.3963   60.7307    0.4230   60.7425    0.4226   60.7231    0.3940   60.7930    0.4407   60.8041    0.4414
  1.010   60.8815    0.4020   60.8645    0.4291   60.8763    0.4287   60.8569    0.3997   60.9271    0.4471   60.9382    0.4478
  1.020   61.0173    0.4078   61.0002    0.4353   61.0121    0.4349   60.9927    0.4055   61.0632    0.4535   61.0743    0.4543
  1.030   61.1551    0.4137   61.1379    0.4416   61.1498    0.4412   61.1304    0.4114   61.2012    0.4600   61.2124    0.4608
  1.040   61.2949    0.4197   61.2776    0.4479   61.2896    0.4475   61.2702    0.4173   61.3413    0.4666   61.3525    0.4674
  1.050   61.4367    0.4257   61.4193    0.4543   61.4314    0.4539   61.4120    0.4233   61.4834    0.4733   61.4946    0.4741
  1.060   61.5806    0.4318   61.5632    0.4608   61.5752    0.4604   61.5558    0.4294   61.6276    0.4801   61.6389    0.4809
  1.070   61.7266    0.4379   61.7091    0.4673   61.7212    0.4669   61.7018    0.4356   61.7739    0.4869   61.7852    0.4877
  1.080   61.8747    0.4442   61.8571    0.4740   61.8692    0.4735   61.8499    0.4418   61.9223    0.4938   61.9336    0.4946
  1.090   62.0250    0.4505   62.0072    0.4807   62.0194    0.4802   62.0001    0.4481   62.0729    0.5008   62.0842    0.5017
  1.100   62.1774    0.4569   62.1596    0.4875   62.1718    0.4870   62.1525    0.4545   62.2256    0.5079   62.2369    0.5087
  1.110   62.3320    0.4634   62.3141    0.4944   62.3264    0.4939   62.3070    0.4609   62.3805    0.5151   62.3919    0.5159
  1.120   62.4889    0.4699   62.4708    0.5013   62.4832    0.5009   62.4638    0.4675   62.5377    0.5224   62.5491    0.5232
  1.130   62.6480    0.4766   62.6298    0.5084   62.6422    0.5079   62.6229    0.4741   62.6971    0.5297   62.7085    0.5306
  1.140   62.8094    0.4833   62.7911    0.5155   62.8036    0.5151   62.7843    0.4808   62.8588    0.5372   62.8703    0.5380
  1.150   62.9731    0.4901   62.9547    0.5228   62.9672    0.5223   62.9479    0.4876   63.0229    0.5447   63.0343    0.5456
  1.160   63.1391    0.4970   63.1207    0.5301   63.1332    0.5296   63.1139    0.4945   63.1893    0.5524   63.2008    0.5532
  1.170   63.3076    0.5040   63.2890    0.5375   63.3016    0.5370   63.2823    0.5015   63.3580    0.5601   63.3696    0.5610
  1.180   63.4784    0.5111   63.4597    0.5450   63.4724    0.5446   63.4531    0.5085   63.5292    0.5680   63.5408    0.5689
  1.190   63.6517    0.5182   63.6329    0.5527   63.6456    0.5522   63.6264    0.5157   63.7029    0.5759   63.7145    0.5768
  1.200   63.8275    0.5255   63.8086    0.5604   63.8214    0.5599   63.8021    0.5230   63.8790    0.5840   63.8906    0.5849
  1.210   64.0058    0.5329   63.9867    0.5682   63.9996    0.5677   63.9803    0.5304   64.0577    0.5922   64.0693    0.5931
  1.220   64.1866    0.5404   64.1675    0.5762   64.1804    0.5757   64.1611    0.5378   64.2389    0.6004   64.2505    0.6014
  1.230   64.3700    0.5479   64.3508    0.5842   64.3637    0.5837   64.3445    0.5454   64.4227    0.6088   64.4344    0.6098
  1.240   64.5561    0.5556   64.5367    0.5924   64.5497    0.5918   64.5305    0.5531   64.6091    0.6174   64.6208    0.6183
  1.250   64.7448    0.5634   64.7253    0.6006   64.7383    0.6001   64.7192    0.5609   64.7982    0.6260   64.8100    0.6269
  1.260   64.9362    0.5713   64.9165    0.6090   64.9297    0.6085   64.9105    0.5688   64.9900    0.6347   65.0018    0.6357
  1.270   65.1304    0.5793   65.1106    0.6175   65.1238    0.6170   65.1046    0.5768   65.1846    0.6436   65.1964    0.6446
  1.280   65.3273    0.5875   65.3074    0.6261   65.3206    0.6256   65.3015    0.5849   65.3819    0.6526   65.3938    0.6536
  1.290   65.5271    0.5957   65.5070    0.6349   65.5203    0.6344   65.5012    0.5932   65.5821    0.6618   65.5940    0.6627
  1.300   65.7297    0.6041   65.7095    0.6438   65.7229    0.6432   65.7038    0.6015   65.7852    0.6710   65.7971    0.6720
  1.310   65.9352    0.6126   65.9149    0.6528   65.9284    0.6523   65.9093    0.6100   65.9911    0.6804   66.0031    0.6814
  1.320   66.1437    0.6212   66.1232    0.6619   66.1368    0.6614   66.1178    0.6186   66.2001    0.6900   66.2121    0.6910
  1.330   66.3552    0.6300   66.3346    0.6712   66.3482    0.6707   66.3292    0.6274   66.4120    0.6997   66.4241    0.7007
  1.340   66.5698    0.6388   66.5490    0.6806   66.5627    0.6801   66.5437    0.6363   66.6270    0.7095   66.6391    0.7105
  1.350   66.7874    0.6479   66.7665    0.6902   66.7802    0.6897   66.7613    0.6453   66.8451    0.7195   66.8573    0.7205
  1.360   67.0082    0.6570   66.9871    0.6999   67.0009    0.6994   66.9820    0.6545   67.0664    0.7296   67.0786    0.7306
  1.370   67.2322    0.6663   67.2109    0.7098   67.2248    0.7092   67.2060    0.6638   67.2909    0.7399   67.3031    0.7409
  1.380   67.4594    0.6758   67.4380    0.7198   67.4520    0.7192   67.4332    0.6733   67.5186    0.7504   67.5308    0.7514
  1.390   67.6899    0.6854   67.6684    0.7300   67.6824    0.7294   67.6637    0.6829   67.7496    0.7610   67.7619    0.7620
  1.400   67.9238    0.6951   67.9021    0.7403   67.9162    0.7397   67.8975    0.6926   67.9840    0.7718   67.9964    0.7728
  1.410   68.1611    0.7050   68.1393    0.7508   68.1535    0.7502   68.1348    0.7026   68.2219    0.7828   68.2342    0.7838
  1.420   68.4019    0.7151   68.3799    0.7614   68.3941    0.7609   68.3755    0.7126   68.4632    0.7939   68.4756    0.7950
  1.430   68.6462    0.7254   68.6240    0.7723   68.6384    0.7717   68.6197    0.7229   68.7080    0.8052   68.7205    0.8063
  1.440   68.8941    0.7358   68.8717    0.7833   68.8862    0.7827   68.8676    0.7333   68.9565    0.8167   68.9689    0.8178
  1.450   69.1456    0.7463   69.1231    0.7945   69.1376    0.7939   69.1191    0.7439   69.2086    0.8284   69.2211    0.8295
  1.460   69.4009    0.7571   69.3781    0.8059   69.3928    0.8053   69.3743    0.7547   69.4644    0.8403   69.4769    0.8414
  1.470   69.6599    0.7680   69.6370    0.8175   69.6517    0.8169   69.6333    0.7656   69.7240    0.8524   69.7366    0.8535
  1.480   69.9228    0.7791   69.8997    0.8292   69.9144    0.8286   69.8961    0.7768   69.9875    0.8647   70.0001    0.8658
